Date and Time:                Mon Jan 30 17:15:52.000 2023
Software Version:             4.31.30023.0
Temperature (C):              -40
Model:                        DU940P_BU2
Data Type:                    Counts
Acquisition Mode:             Single Scan
Trigger Mode:                 Internal
Exposure Time (secs):         40
Readout Mode:                 Full Vertical Binning
Horizontal binning:           1
Extended Dynamic Range:       off
Horizontally flipped:         false
Vertical Shift Speed (usecs): 14.51
Pixel Readout Rate (MHz):     3
Baseline Clamp:               ON
Clock Amplitude:              Normal
Output Amplifier:             High Capacity
Serial Number:                23634
Pre-Amplifier Gain:           1.000000
Spurious Noise Filter Mode:   No Filter
Photon counted:               false
Data Averaging Filter Mode:   No Filter
SR500i:
Serial Number:                
Wavelength (nm):              225
Grating Groove Density (l/mm):1199.47
Grating Blaze:                500
Output Flipper Port:          Direct
Accessory Output Port 1:      Off
Accessory Output Port 2:      Off
Accessory Output Port 3:      Off
Accessory Input Port:         On



203.08546	6277
203.10698	6021
203.12848	6065
203.14999	6049
203.17151	6055
203.19302	6132
203.21452	6159
203.23604	6197
203.25755	6225
203.27905	6197
203.30057	6253
203.32208	6199
203.34358	6219
203.3651	6303
203.38661	6331
203.40811	6363
203.42963	6443
203.45113	6434
203.47264	6494
203.49416	6473
203.51566	6543
203.53717	6631
203.55867	6672
203.58018	6661
203.60168	6717
203.6232	6754
203.6447	6808
203.66621	6886
203.68771	6893
203.70923	6900
203.73073	6962
203.75224	7037
203.77374	7025
203.79526	7076
203.81676	7110
203.83827	7167
203.85977	7251
203.88127	7279
203.90279	7323
203.92429	7391
203.94579	7388
203.9673	7434
203.9888	7414
204.01031	7428
204.03181	7483
204.05331	7522
204.07481	7566
204.09633	7621
204.11783	7677
204.13933	7725
204.16084	7728
204.18234	7755
204.20384	7791
204.22534	7905
204.24684	7941
204.26836	7933
204.28986	7992
204.31136	8059
204.33286	8129
204.35435	8152
204.37587	8167
204.39737	8178
204.41887	8226
204.44037	8300
204.46187	8292
204.48337	8373
204.50487	8410
204.52637	8371
204.54787	8408
204.56937	8358
204.59087	8452
204.61237	8549
204.63387	8634
204.65536	8663
204.67688	8636
204.69836	8714
204.71986	8712
204.74136	8767
204.76286	8773
204.78436	8832
204.80586	8877
204.82736	8917
204.84886	8949
204.87036	9026
204.89186	9083
204.91336	9143
204.93486	9242
204.95636	9281
204.97784	9352
204.99934	9305
205.02084	9378
205.04234	9370
205.06384	9456
205.08534	9512
205.10683	9563
205.12833	9673
205.14983	9667
205.17133	9699
205.19281	9768
205.21431	9871
205.23581	9915
205.25731	9925
205.27879	9991
205.30029	10087
205.32179	10086
205.34328	10232
205.36478	10250
205.38628	10344
205.40776	10317
205.42926	10354
205.45074	10364
205.47224	10371
205.49374	10393
205.51523	10480
205.53673	10653
205.55821	10620
205.57971	10703
205.6012	10755
205.6227	10816
205.6442	10893
205.66568	10861
205.68718	10993
205.70866	11062
205.73015	11025
205.75165	11053
205.77313	11073
205.79463	11136
205.81612	11162
205.83762	11207
205.8591	11251
205.88058	11330
205.90208	11373
205.92357	11412
205.94507	11484
205.96655	11524
205.98804	11444
206.00954	11496
206.03102	11565
206.05251	11681
206.07401	11764
206.09549	11743
206.11697	11846
206.13846	11854
206.15996	11938
206.18144	11913
206.20293	12040
206.22441	12037
206.24591	12131
206.2674	12235
206.28888	12314
206.31036	12388
206.33185	12501
206.35335	12644
206.37483	12670
206.39632	12708
206.4178	12762
206.43929	12852
206.46077	12899
206.48225	12965
206.50374	12952
206.52522	13012
206.54672	13061
206.56821	13108
206.58969	13252
206.61118	13402
206.63266	13465
206.65414	13653
206.67563	13724
206.69711	13811
206.7186	13811
206.74008	13789
206.76157	13886
206.78304	13974
206.80452	14055
206.826	14217
206.84749	14304
206.86897	14362
206.89046	14454
206.91194	14510
206.93343	14537
206.95491	14582
206.97638	14692
206.99786	14811
207.01935	14805
207.04083	14826
207.06232	14912
207.0838	15004
207.10527	15104
207.12675	15044
207.14824	15019
207.16972	15113
207.19119	15177
207.21268	15183
207.23416	15313
207.25563	15381
207.27711	15380
207.2986	15503
207.32007	15664
207.34155	15704
207.36304	15816
207.38451	15969
207.40599	16112
207.42747	16145
207.44894	16197
207.47043	16199
207.4919	16114
207.51338	16223
207.53487	16239
207.55634	16191
207.57782	16443
207.59929	16504
207.62077	16588
207.64224	16587
207.66373	16680
207.6852	16754
207.70668	16767
207.72815	16738
207.74962	16865
207.7711	17104
207.79257	17264
207.81406	17220
207.83553	17345
207.85701	17447
207.87848	17509
207.89995	17514
207.92143	17492
207.9429	17615
207.96437	17682
207.98586	17756
208.00732	17821
208.02879	17770
208.05028	17748
208.07175	17808
208.09322	18046
208.11469	18141
208.13617	18360
208.15764	18386
208.17911	18462
208.20058	18415
208.22205	18534
208.24353	18675
208.265	18765
208.28647	18926
208.30794	19068
208.32941	19069
208.35088	19060
208.37236	19207
208.39383	19300
208.4153	19297
208.43677	19413
208.45824	19479
208.47971	19494
208.50117	19440
208.52264	19442
208.54411	19536
208.56558	19648
208.58705	19650
208.60852	19594
208.62999	19566
208.65146	19598
208.67293	19684
208.6944	19842
208.71587	19936
208.73734	20048
208.7588	20197
208.78027	20220
208.80174	20418
208.82321	20503
208.84467	20525
208.86613	20523
208.8876	20514
208.90907	20527
208.93054	20504
208.95201	20571
208.97346	20674
208.99493	20593
209.0164	20521
209.03787	20625
209.05934	20774
209.0808	20805
209.10226	20720
209.12373	20739
209.1452	20729
209.16666	20761
209.18813	20940
209.20959	21005
209.23105	21202
209.25252	21365
209.27399	21330
209.29544	21342
209.31691	21400
209.33836	21488
209.35983	21490
209.3813	21646
209.40276	21533
209.42422	21734
209.44568	21785
209.46715	21806
209.4886	21884
209.51007	21912
209.53152	21890
209.55299	22054
209.57445	22280
209.59592	22449
209.61737	22519
209.63884	22424
209.66029	22432
209.68176	22491
209.70322	22496
209.72469	22616
209.74614	22728
209.76759	22908
209.78906	22773
209.81052	22839
209.83197	22954
209.85344	23037
209.87489	23150
209.89635	23154
209.91782	23135
209.93927	23227
209.96072	23285
209.98219	23278
210.00365	23446
210.0251	23464
210.04655	23587
210.06802	23626
210.08948	23818
210.11093	23848
210.13239	23771
210.15384	23790
210.17531	23874
210.19676	23945
210.21822	24148
210.23967	24251
210.26112	24427
210.28258	24576
210.30403	24620
210.32549	24620
210.34695	24918
210.36841	24943
210.38986	24829
210.41132	24761
210.43277	24872
210.45422	25019
210.47568	25118
210.49713	25266
210.51859	25386
210.54004	25389
210.56149	25272
210.58295	25300
210.6044	25455
210.62585	25531
210.64729	25670
210.66875	25789
210.6902	25876
210.71165	25995
210.73311	26074
210.75456	25962
210.77602	26292
210.79747	26323
210.81891	26457
210.84036	26529
210.86182	26601
210.88327	26645
210.90472	26673
210.92616	26635
210.94762	26772
210.96907	26842
210.99052	26857
211.01196	27129
211.03342	27347
211.05487	27467
211.07631	27406
211.09776	27251
211.11922	27250
211.14066	27406
211.16211	27396
211.18356	27485
211.205	27664
211.22646	27889
211.24791	27712
211.26935	27516
211.2908	27575
211.31224	27680
211.33369	27666
211.35513	27936
211.37659	28029
211.39803	27974
211.41948	27955
211.44092	27920
211.46237	28099
211.48381	28004
211.50526	28010
211.5267	28108
211.54816	28308
211.5696	28255
211.59103	28296
211.61249	28268
211.63393	28387
211.65538	28465
211.67682	28514
211.69826	28645
211.71971	28825
211.74115	28990
211.76259	28906
211.78404	29069
211.80548	28918
211.82692	28809
211.84836	28688
211.86981	28775
211.89125	28724
211.91269	28735
211.93413	28761
211.95558	28966
211.97702	29016
211.99846	28982
212.0199	28873
212.04134	28906
212.06277	28982
212.08423	28995
212.10567	28963
212.12711	29251
212.14854	29557
212.16998	29648
212.19142	29563
212.21286	29553
212.2343	29658
212.25574	29672
212.27718	29636
212.29861	29617
212.32005	29672
212.34149	29725
212.36293	29739
212.38437	29671
212.40581	29762
212.42725	29855
212.44868	29911
212.47012	30118
212.49156	30296
212.513	30415
212.53444	30314
212.55588	30339
212.57732	30226
212.59874	30251
212.62018	30506
212.64162	30680
212.66306	30898
212.68449	31120
212.70593	31034
212.72736	31082
212.74879	31114
212.77023	31119
212.79167	31096
212.8131	31169
212.83453	31262
212.85597	31177
212.87741	31038
212.89883	31028
212.92027	31070
212.94171	31160
212.96313	31007
212.98457	30927
213.00601	30945
213.02744	30999
213.04887	30987
213.0703	30925
213.09174	31029
213.11317	30959
213.1346	31140
213.15604	31331
213.17746	31484
213.1989	31567
213.22032	31589
213.24176	31502
213.26318	31496
213.28462	31358
213.30605	31245
213.32748	31346
213.34891	31165
213.37033	31237
213.39177	31064
213.41319	31250
213.43463	31301
213.45605	31393
213.47748	31299
213.49892	31259
213.52034	31250
213.54176	31326
213.5632	31229
213.58463	31235
213.60605	31476
213.62749	31524
213.64891	31536
213.67033	31661
213.69177	31836
213.7132	31658
213.73462	31565
213.75604	31603
213.77747	31754
213.7989	31741
213.82033	31749
213.84175	31670
213.86317	31666
213.8846	31529
213.90602	31578
213.92744	31898
213.94888	32084
213.97031	32313
213.99173	32259
214.01315	32303
214.03458	32227
214.056	32106
214.07742	32336
214.09885	32589
214.12027	32660
214.14169	32732
214.16312	32719
214.18454	32839
214.20596	32813
214.22739	32796
214.24881	32778
214.27023	32656
214.29166	32797
214.31308	32827
214.33449	32579
214.35591	32622
214.37733	32736
214.39876	32722
214.42018	32623
214.4416	32519
214.46303	32443
214.48444	32386
214.50586	32353
214.52728	32561
214.54871	32528
214.57011	32513
214.59154	32536
214.61296	32639
214.63438	32693
214.65579	32756
214.67722	32677
214.69864	32641
214.72005	32627
214.74147	32450
214.76289	32389
214.7843	32482
214.80573	32563
214.82715	32436
214.84856	32185
214.86998	32128
214.89139	32304
214.91281	32442
214.93423	32347
214.95564	32334
214.97707	32276
214.99847	32281
215.0199	32130
215.04131	32039
215.06273	32268
215.08414	32137
215.10556	32170
215.12697	32261
215.14838	32340
215.1698	32281
215.19121	32006
215.21263	31967
215.23404	31959
215.25545	31967
215.27687	32040
215.29828	32160
215.31969	32218
215.34111	32131
215.36252	32151
215.38393	32245
215.40535	32420
215.42676	32450
215.44817	32606
215.46957	32324
215.491	32400
215.51241	32451
215.53381	32471
215.55522	32391
215.57663	32578
215.59805	32643
215.61946	32596
215.64087	32687
215.66228	32742
215.68369	32944
215.70509	32867
215.7265	32953
215.74792	32795
215.76933	32932
215.79074	32972
215.81215	33049
215.83356	33286
215.85497	33181
215.87637	33080
215.89778	32861
215.91919	32873
215.9406	32891
215.96201	32998
215.98341	33039
216.00482	33087
216.02623	33103
216.04762	33090
216.06903	33237
216.09044	33187
216.11185	33138
216.13326	33147
216.15466	33394
216.17607	33423
216.19748	33416
216.21887	33311
216.24028	33253
216.26169	33623
216.2831	33667
216.3045	33564
216.3259	33681
216.34731	33740
216.36871	33585
216.39012	33481
216.41151	33189
216.43292	33090
216.45433	33157
216.47572	33224
216.49713	33370
216.51854	33440
216.53993	33382
216.56134	33291
216.58273	33413
216.60414	33618
216.62555	33568
216.64694	33661
216.66835	33710
216.68974	33618
216.71115	33619
216.73254	33606
216.75395	33615
216.77534	33704
216.79675	33866
216.81815	33676
216.83955	33912
216.86095	34161
216.88235	34416
216.90375	34162
216.92514	33968
216.94655	34190
216.96794	34164
216.98935	34497
217.01074	34488
217.03214	34620
217.05354	34593
217.07494	34656
217.09633	34548
217.11774	34413
217.13913	34366
217.16052	34351
217.18192	34527
217.20332	34625
217.22472	34488
217.24611	34305
217.2675	34325
217.28891	34390
217.3103	34372
217.3317	34203
217.35309	34078
217.37448	34172
217.39587	34072
217.41727	34045
217.43867	34040
217.46007	33905
217.48146	33889
217.50285	34133
217.52425	34253
217.54564	34369
217.56703	34413
217.58842	34398
217.60982	34379
217.63121	34359
217.6526	34307
217.674	34189
217.69539	34155
217.71678	34109
217.73817	33944
217.75957	33814
217.78096	33846
217.80235	33697
217.82373	33662
217.84512	33533
217.86652	33512
217.88791	33409
217.9093	33429
217.93069	33476
217.95209	33689
217.97346	33812
217.99486	33774
218.01625	33647
218.03764	33768
218.05902	33705
218.08041	33668
218.10181	33603
218.1232	33467
218.14458	33512
218.16597	33380
218.18736	33382
218.20874	33362
218.23013	33400
218.25153	33302
218.2729	33319
218.2943	33477
218.31567	33758
218.33707	33863
218.35846	33622
218.37984	33562
218.40123	33448
218.42261	33421
218.444	33664
218.46538	33924
218.48677	34075
218.50815	34210
218.52954	34088
218.55092	33996
218.57231	33865
218.59369	33854
218.61507	33833
218.63646	33952
218.65784	33990
218.67923	33761
218.70061	33651
218.72198	33558
218.74338	33614
218.76476	33426
218.78613	33215
218.80753	33183
218.8289	33228
218.85028	33165
218.87166	33245
218.89305	33305
218.91443	33179
218.93581	33249
218.95718	33463
218.97858	33563
218.99995	33544
219.02133	33657
219.04271	33468
219.06409	33491
219.08546	33391
219.10686	33188
219.12823	33246
219.14961	33288
219.17099	33095
219.19237	32852
219.21375	32804
219.23512	32994
219.2565	33023
219.27788	33097
219.29926	32915
219.32063	32881
219.34201	32787
219.36339	32720
219.38477	32647
219.40614	32764
219.42752	32907
219.4489	32902
219.47028	33043
219.49165	32837
219.51303	32800
219.53439	32674
219.55577	32572
219.57715	32602
219.59853	32505
219.6199	32620
219.64128	32595
219.66264	32517
219.68402	32439
219.7054	32209
219.72678	32510
219.74814	32704
219.76952	32706
219.79089	32754
219.81227	32552
219.83363	32467
219.85501	32313
219.87639	32335
219.89775	32442
219.91913	32732
219.94051	32961
219.96187	32861
219.98325	32778
220.00461	32699
220.02599	32897
220.04735	32908
220.06873	32714
220.0901	32739
220.11147	32644
220.13284	32585
220.15421	32505
220.17558	32480
220.19695	32514
220.21832	32557
220.23969	32342
220.26105	32255
220.28242	32265
220.30379	32139
220.32516	32156
220.34653	32245
220.36789	32300
220.38927	32229
220.41063	32341
220.43199	32600
220.45337	32420
220.47473	32406
220.49609	32361
220.51747	32249
220.53883	32201
220.5602	32082
220.58156	32071
220.60294	32098
220.6243	32166
220.64566	31919
220.66702	31921
220.68839	32009
220.70976	32199
220.73112	32218
220.75249	32150
220.77385	32169
220.79521	32115
220.81657	31875
220.83794	31795
220.8593	31749
220.88066	31617
220.90202	31672
220.92339	31699
220.94475	31866
220.96611	31731
220.98747	31518
221.00883	31321
221.0302	31382
221.05156	31244
221.07292	31386
221.09428	31487
221.11565	31408
221.13701	31538
221.15837	31432
221.17973	31252
221.2011	31471
221.22246	31518
221.2438	31545
221.26517	31388
221.28653	31480
221.30789	31411
221.32925	31298
221.3506	31196
221.37196	31189
221.39333	31184
221.41469	31238
221.43604	31363
221.4574	31603
221.47876	31660
221.50011	31764
221.52147	31704
221.54283	31769
221.56418	31882
221.58554	31954
221.6069	31909
221.62825	32047
221.64961	32115
221.67096	32035
221.69232	31737
221.71368	31723
221.73503	31766
221.75639	31667
221.77774	31856
221.7991	31884
221.82045	31872
221.84181	31812
221.86316	31778
221.88451	31798
221.90587	31690
221.92722	31834
221.94858	31787
221.96992	31938
221.99127	31980
222.01263	31807
222.03398	31746
222.05534	31829
222.07669	32043
222.09804	31962
222.11938	32229
222.14075	32424
222.16209	32295
222.18344	32253
222.2048	31996
222.22615	31777
222.2475	31644
222.26884	31554
222.29019	31609
222.31155	31802
222.3329	31916
222.35425	31620
222.3756	31716
222.39694	31913
222.41829	31832
222.43964	31918
222.46098	31885
222.48235	31989
222.50369	32003
222.52504	32002
222.54639	31920
222.56773	31943
222.58908	32016
222.61043	31859
222.63177	31950
222.65312	32203
222.67447	32443
222.69582	32426
222.71715	32362
222.73849	32272
222.75984	32161
222.78119	32449
222.80254	32517
222.82388	32662
222.84523	32866
222.86658	32838
222.88791	32771
222.90926	32889
222.9306	32872
222.95195	32909
222.9733	33019
222.99463	33155
223.01598	33007
223.03732	33022
223.05867	32867
223.08	33023
223.10135	32954
223.1227	33077
223.14403	32993
223.16537	32876
223.18672	32991
223.20805	32878
223.2294	32988
223.25073	33054
223.27208	33013
223.29343	33103
223.31476	33268
223.33611	33453
223.35744	33386
223.37878	33510
223.40012	33528
223.42146	33588
223.44279	33465
223.46414	33275
223.48547	33230
223.50682	33231
223.52815	33105
223.54948	32927
223.57083	32938
223.59216	33087
223.61349	32896
223.63484	32949
223.65617	32805
223.67752	32786
223.69885	32655
223.72018	32684
223.74152	32791
223.76286	33276
223.78419	33303
223.80553	33333
223.82686	33248
223.84821	33259
223.86954	33280
223.89087	33190
223.9122	33273
223.93353	33387
223.95488	33389
223.97621	33556
223.99754	33509
224.01888	33562
224.04021	33548
224.06154	33577
224.08287	33795
224.1042	34223
224.12553	34525
224.14687	34588
224.1682	34619
224.18953	34280
224.21086	34242
224.23219	34142
224.25352	34373
224.27486	34565
224.29619	34988
224.31752	35020
224.33885	34998
224.36018	34953
224.38152	34948
224.40285	34874
224.42418	34890
224.4455	34985
224.46683	34904
224.48816	34651
224.50949	34562
224.53082	34494
224.55214	34335
224.57347	34397
224.5948	34386
224.61613	34528
224.63745	34665
224.65878	34745
224.68011	34698
224.70145	34814
224.72276	34806
224.74409	35082
224.76541	35369
224.78674	35603
224.80807	35613
224.82939	35578
224.85072	35750
224.87204	35851
224.89337	35879
224.9147	35457
224.93602	35464
224.95735	35564
224.97867	35395
225	35147
225.02132	35352
225.04265	36083
225.06396	35893
225.08528	36097
225.10661	36273
225.12793	36325
225.14926	36290
225.17058	36118
225.19189	36244
225.21323	36404
225.23454	36335
225.25586	36681
225.27719	36651
225.29851	36770
225.31982	36517
225.34116	36441
225.36247	36550
225.38379	36415
225.40511	36396
225.42644	36518
225.44775	36709
225.46907	36781
225.49039	36801
225.5117	36809
225.53304	36845
225.55435	37079
225.57567	37017
225.59698	37179
225.6183	36985
225.63962	36952
225.66093	37172
225.68225	36949
225.70357	37144
225.72488	37385
225.7462	37395
225.76752	37392
225.78883	37566
225.81015	37426
225.83147	37768
225.85278	37735
225.8741	37554
225.89542	37887
225.91673	37774
225.93805	37705
225.95937	37768
225.98068	37880
226.00198	37931
226.0233	37800
226.04462	37780
226.06593	37711
226.08725	37895
226.10855	38003
226.12987	37964
226.15118	37854
226.1725	38113
226.1938	38074
226.21512	38242
226.23643	38214
226.25775	38371
226.27905	38405
226.30037	38228
226.32167	38456
226.34299	38347
226.3643	38194
226.3856	38415
226.40692	38478
226.42824	38428
226.44954	38396
226.47086	38539
226.49216	38484
226.51347	38550
226.53477	38361
226.55609	38216
226.57739	38234
226.59871	38030
226.62001	37728
226.64131	37334
226.66263	37375
226.68393	37507
226.70525	37303
226.72655	37361
226.74785	37777
226.76917	37484
226.79047	37341
226.81177	37550
226.83308	37256
226.85439	37407
226.87569	37408
226.897	37550
226.9183	38067
226.93961	37709
226.96091	37883
226.98222	37951
227.00352	38124
227.02483	38323
227.04613	38340
227.06743	38343
227.08873	38378
227.11005	38287
227.13135	37936
227.15265	37795
227.17395	37913
227.19525	37952
227.21655	38230
227.23785	38272
227.25916	38689
227.28046	38666
227.30176	38777
227.32306	38627
227.34436	38659
227.36566	38633
227.38696	38860
227.40826	39196
227.42957	39265
227.45087	39422
227.47217	39213
227.49347	39151
227.51476	38914
227.53606	38862
227.55736	38803
227.57866	39123
227.59996	39206
227.62126	39104
227.64255	39337
227.66385	39172
227.68515	39441
227.70645	39487
227.72774	39437
227.74904	39500
227.77034	39689
227.79163	39731
227.81293	39412
227.83423	39395
227.85551	39435
227.87682	39312
227.89812	39879
227.9194	39726
227.9407	40356
227.96199	40146
227.98329	40023
228.00459	40142
228.02588	39720
228.04718	39980
228.06847	40063
228.08977	40085
228.11105	40430
228.13234	40410
228.15364	40649
228.17493	40380
228.19623	40544
228.21751	40905
228.23882	40534
228.2601	40796
228.28139	40846
228.30269	40991
228.32397	40993
228.34526	41036
228.36656	40851
228.38785	40975
228.40913	40794
228.43042	41114
228.45172	41334
228.47301	41563
228.49429	41530
228.51558	41478
228.53688	41563
228.55817	41459
228.57945	41822
228.60074	41759
228.62202	42088
228.64331	42439
228.6646	42247
228.6859	42443
228.70718	42438
228.72847	42678
228.74976	42795
228.77104	42850
228.79233	42890
228.81361	43245
228.8349	42790
228.85619	42863
228.87747	43018
228.89876	42908
228.92004	43203
228.94133	42819
228.9626	43147
228.98389	43026
229.00517	43141
229.02646	43328
229.04774	43759
229.06903	43819
229.09032	43520
229.11159	44210
229.13287	44185
229.15416	44342
229.17545	44490
229.19673	44685
229.218	44449
229.23929	44670
229.26057	44411
229.28185	44585
229.30313	44452
229.32442	44302
229.34569	44328
229.36697	44419
229.38826	44587
229.40953	44523
229.43082	44263
229.45209	44310
229.47337	44347
229.49466	44256
229.51593	44317
229.53722	44407
229.55849	44532
229.57977	44580
229.60104	44466
229.62233	44350
229.6436	44025
229.66489	43993
229.68616	43933
229.70743	43672
229.72871	43654
229.74998	43300
229.77126	43504
229.79254	42934
229.81381	42909
229.8351	42975
229.85637	42767
229.87764	42786
229.89891	42571
229.9202	42911
229.94147	42578
229.96274	42891
229.98401	42194
230.00529	42263
230.02657	42127
230.04784	42473
230.06911	42619
230.09038	42261
230.11165	42591
230.13293	42187
230.15421	42309
230.17548	41946
230.19675	41808
230.21802	41782
230.23929	41712
230.26056	41682
230.28183	41355
230.3031	41018
230.32437	41228
230.34564	40890
230.36691	40624
230.38818	40516
230.40945	40322
230.43073	40322
230.452	40553
230.47327	40320
230.49454	40367
230.51579	40251
230.53706	40065
230.55833	40354
230.57961	40433
230.60088	40261
230.62215	40316
230.6434	40431
230.66467	39917
230.68594	40196
230.70721	39923
230.72847	39762
230.74974	39830
230.77101	39497
230.79227	39511
230.81354	39580
230.83481	39603
230.85606	39869
230.87733	39691
230.89861	39880
230.91986	39750
230.94113	39758
230.96239	39381
230.98366	39474
231.00491	39295
231.02618	39403
231.04744	39318
231.06871	39631
231.08997	39662
231.11124	39706
231.13249	39280
231.15376	39530
231.17502	39415
231.19629	39458
231.21754	39606
231.2388	39649
231.26007	39774
231.28133	39928
231.30258	39617
231.32385	39850
231.34511	39953
231.36636	40092
231.38763	39949
231.40889	40115
231.43015	39949
231.4514	40045
231.47266	40007
231.49393	40238
231.51518	39981
231.53644	40116
231.55769	40310
231.57895	40323
231.6002	40367
231.62148	40759
231.64273	40696
231.66399	40619
231.68524	40806
231.7065	40648
231.72775	40890
231.74901	40738
231.77026	40785
231.79152	40873
231.81277	40654
231.83403	40499
231.85529	40433
231.87654	40338
231.8978	40646
231.91905	40758
231.94031	40505
231.96155	40736
231.9828	40653
232.00406	40520
232.02531	40654
232.04657	40419
232.06783	40531
232.08907	40815
232.11032	40568
232.13158	40518
232.15283	40230
232.17407	40405
232.19533	40331
232.21658	40568
232.23784	40448
232.25908	40248
232.28033	40677
232.30159	40694
232.32283	40601
232.34409	40298
232.36533	40369
232.38658	40037
232.40784	39927
232.42908	39426
232.45033	39446
232.47157	39199
232.49283	39410
232.51407	39717
232.53532	39636
232.55656	39588
232.57782	39554
232.59906	39448
232.6203	39256
232.64156	39399
232.6628	39783
232.68405	39768
232.70529	40038
232.72653	40337
232.74779	40028
232.76903	40326
232.79027	40046
232.81152	40843
232.83276	40528
232.854	40670
232.87524	40525
232.8965	40391
232.91774	40268
232.93898	40196
232.96022	40057
232.98146	40339
233.00272	40302
233.02396	40473
233.0452	40689
233.06644	40866
233.08768	40664
233.10892	40781
233.13016	40980
233.1514	41087
233.17264	41379
233.19388	41527
233.21512	41619
233.23636	41911
233.2576	41570
233.27884	41639
233.30008	41647
233.32132	41673
233.34256	41621
233.3638	41907
233.38504	41758
233.40628	41762
233.42752	41756
233.44876	42086
233.46999	41766
233.49123	41940
233.51247	42145
233.53371	42025
233.55495	42087
233.57617	41988
233.59741	42075
233.61865	42122
233.63989	42081
233.66112	42421
233.68236	42532
233.7036	42590
233.72482	42800
233.74606	42693
233.7673	42556
233.78853	42356
233.80977	42430
233.83099	42464
233.85223	42464
233.87347	42683
233.8947	42621
233.91594	42735
233.93716	42772
233.9584	42879
233.97963	42839
234.00087	42831
234.02209	42850
234.04332	42710
234.06456	42718
234.08578	42724
234.10703	42508
234.12825	42770
234.14948	42585
234.17072	42581
234.19194	42562
234.21317	43206
234.23441	43260
234.25563	43427
234.27686	43393
234.29808	43615
234.31932	43479
234.34055	43213
234.36177	43606
234.383	43708
234.40424	43956
234.42546	44334
234.44669	44137
234.46791	44155
234.48914	44522
234.51036	44369
234.53159	44404
234.55281	44250
234.57404	44512
234.59526	44394
234.61649	44478
234.63773	44385
234.65895	44406
234.68016	44513
234.70139	44028
234.72261	43925
234.74384	44056
234.76506	43882
234.78629	43681
234.80751	43946
234.82874	44146
234.84996	43978
234.87119	44487
234.89241	44292
234.91362	44814
234.93484	44515
234.95607	44659
234.97729	44613
234.9985	44473
235.01973	44600
235.04095	44635
235.06218	44482
235.08339	44429
235.10461	44378
235.12584	44213
235.14705	44286
235.16827	44124
235.1895	44061
235.21071	44225
235.23193	44186
235.25314	44186
235.27437	43807
235.29559	43944
235.3168	43983
235.33803	44450
235.35924	44132
235.38046	44196
235.40167	44110
235.4229	44171
235.44411	44096
235.46532	43870
235.48654	44081
235.50775	44257
235.52898	44228
235.55019	44284
235.5714	44164
235.59262	44144
235.61383	44101
235.63504	44182
235.65627	43935
235.67747	44360
235.69868	44210
235.71989	44401
235.74112	44352
235.76233	44183
235.78354	44232
235.80475	44327
235.82596	44576
235.84718	44488
235.86839	44894
235.8896	44462
235.91081	44555
235.93202	44768
235.95323	44877
235.97444	44650
235.99565	44822
236.01686	44689
236.03807	44466
236.05928	44506
236.08049	44478
236.1017	44338
236.12291	44310
236.14412	44028
236.16533	44215
236.18654	43743
236.20775	44290
236.22896	43966
236.25017	44061
236.27136	43951
236.29257	44045
236.31378	43885
236.33499	44104
236.3562	44068
236.3774	44101
236.39861	43923
236.41982	43837
236.44102	43968
236.46222	43685
236.48343	43575
236.50464	43775
236.52583	43562
236.54704	43199
236.56825	43282
236.58945	43011
236.61066	43064
236.63187	43249
236.65306	42827
236.67427	42869
236.69547	42540
236.71667	42541
236.73787	42104
236.75908	42171
236.78027	42123
236.80148	42291
236.82268	42065
236.84389	41919
236.86508	42020
236.88629	41468
236.90749	41749
236.92868	41344
236.94989	41366
236.97108	41406
236.99228	41704
237.01349	41544
237.03468	41596
237.05588	41382
237.07709	40994
237.09828	41570
237.11948	41205
237.14067	40997
237.16187	41021
237.18307	40807
237.20427	40492
237.22546	40512
237.24666	40176
237.26785	40272
237.28905	40369
237.31024	40141
237.33145	40020
237.35265	40264
237.37384	40014
237.39503	40165
237.41623	40086
237.43742	39924
237.45862	39767
237.47981	39866
237.50101	39524
237.5222	39708
237.5434	39748
237.56458	39379
237.58577	39415
237.60696	39218
237.62816	39069
237.64935	38839
237.67055	38796
237.69174	38758
237.71292	38656
237.73412	38782
237.75531	38449
237.7765	38629
237.7977	38497
237.81888	38352
237.84007	38299
237.86127	38087
237.88245	38150
237.90364	37527
237.92484	37431
237.94601	37151
237.96721	37181
237.9884	36892
238.00958	36918
238.03078	37161
238.05196	37035
238.07315	37284
238.09433	36869
238.11552	36716
238.1367	36357
238.1579	36151
238.17908	35847
238.20027	35894
238.22145	35456
238.24265	35237
238.26382	35210
238.285	35210
238.3062	35179
238.32738	35015
238.34857	35065
238.36975	35031
238.39093	34592
238.41211	34707
238.4333	34544
238.45448	34796
238.47566	34685
238.49686	34642
238.51804	34342
238.53922	34279
238.56039	34318
238.58157	34336
238.60275	34231
238.62395	34040
238.64513	33987
238.66631	33654
238.68748	33264
238.70866	33166
238.72984	32786
238.75102	32822
238.7722	32663
238.79338	32836
238.81456	32892
238.83574	32602
238.85692	32349
238.8781	32310
238.89928	32362
238.92046	32394
238.94164	32250
238.96281	32181
238.98399	32166
239.00516	31877
239.02634	31788
239.04752	31648
239.0687	31366
239.08987	31359
239.11105	31221
239.13222	31135
239.1534	30958
239.17458	30839
239.19576	30852
239.21692	30671
239.2381	30503
239.25928	30429
239.28044	30223
239.30162	30157
239.3228	30011
239.34396	29820
239.36514	29719
239.38631	29714
239.40749	29519
239.42865	29519
239.44983	29552
239.47099	29455
239.49217	29409
239.51334	29238
239.53452	29171
239.55568	28891
239.57686	28702
239.59802	28466
239.6192	28525
239.64037	28596
239.66153	28460
239.68271	28297
239.70387	28248
239.72504	28106
239.74622	27991
239.76738	27848
239.78854	27670
239.80972	27550
239.83089	27411
239.85205	27343
239.87321	27287
239.89438	27096
239.91556	26708
239.93672	26328
239.95789	26266
239.97905	26471
240.00021	26444
240.02138	26339
240.04254	26214
240.06372	26026
240.08488	25866
240.10605	25805
240.12721	25822
240.14838	25832
240.16954	25741
240.1907	25675
240.21187	25546
240.23303	25451
240.25418	25390
240.27534	25199
240.29651	25099
240.31767	25021
240.33884	24831
240.36	24735
240.38116	24522
240.40233	24423
240.42348	24269
240.44464	24143
240.46581	24037
240.48697	23869
240.50812	23774
240.52928	23650
240.55045	23623
240.57161	23530
240.59276	23404
240.61392	23301
240.63509	23372
240.65623	23291
240.6774	23192
240.69855	22922
240.71971	22827
240.74088	22749
240.76202	22666
240.78319	22569
240.80434	22329
240.8255	22349
240.84665	22175
240.86781	21931
240.88896	21698
240.91013	21598
240.93127	21494
240.95242	21293
240.97359	21213
240.99474	21057
241.01588	21000
241.03705	20703
241.0582	20558
241.07935	20454
241.10051	20433
241.12166	20269
241.14281	20268
241.16397	20129
241.18512	19983
241.20627	19867
241.22742	19653
241.24857	19636
241.26973	19523
241.29088	19491
241.31203	19466
241.33318	19322
241.35432	19087
241.37547	18995
241.39662	18858
241.41777	18851
241.43892	18749
241.46007	18769
241.48122	18760
241.50237	18692
241.52351	18444
241.54466	18311
241.56581	18290
241.58696	18294
241.60811	18304
241.62926	18212
241.65041	18122
241.67155	18139
241.6927	18254
241.71384	18119
241.73499	17985
241.75613	17881
241.77728	17754
241.79843	17600
241.81956	17506
241.84071	17529
241.86186	17487
241.88301	17428
241.90414	17250
241.92529	17056
241.94644	17028
241.96758	16890
241.98872	16839
242.00986	16876
242.03101	16763
242.05215	16592
242.07329	16481
242.09444	16561
242.11557	16403
242.13672	16370
242.15785	16320
242.179	16257
242.20013	16141
242.22128	16025
242.24242	15912
242.26357	15925
242.2847	15845
242.30583	15772
242.32698	15618
242.34811	15658
242.36925	15623
242.3904	15512
242.41153	15451
242.43266	15382
242.45381	15229
242.47495	15078
242.49608	14954
242.51721	14863
242.53835	14809
242.55949	14747
242.58063	14710
242.60176	14633
242.62289	14636
242.64403	14498
242.66516	14383
242.68629	14295
242.70744	14180
242.72858	14239
242.74971	14273
242.77084	14253
242.79198	14208
242.81311	14047
242.83424	13901
242.85538	13874
242.87651	13863
242.89763	13821
242.91876	13733
242.9399	13721
242.96103	13553
242.98216	13483
243.0033	13361
243.02443	13297
243.04556	13154
243.06668	13093
243.08781	13123
243.10895	13210
243.13008	13235
243.1512	13070
243.17233	12903
243.19347	12830
243.2146	12768
243.23572	12708
243.25685	12681
243.27797	12725
243.2991	12639
243.32024	12544
243.34135	12374
243.36249	12293
243.38361	12271
243.40474	12176
243.42587	12137
243.44699	12134
243.46812	12063
243.48924	11994
243.51036	11890
243.53149	11826
243.55261	11767
243.57375	11621
243.59486	11629
243.616	11549
243.63712	11434
243.65823	11350
243.67937	11252
243.70049	11232
243.7216	11176
243.74272	11107
243.76385	11093
243.78497	11113
243.80609	11076
243.82721	10962
243.84834	10856
243.86946	10785
243.89058	10628
243.9117	10554
243.93282	10497
243.95393	10411
243.97505	10314
243.99619	10244
244.0173	10164
244.03842	10114
244.05954	10157
244.08066	10129
244.10178	10094
244.12289	10053
244.14401	9955
244.16513	9862
244.18625	9959
244.20735	10008
244.22847	10004
244.24959	9851
244.27071	9819
244.29182	9777
244.31294	9741
244.33406	9714
244.35516	9650
244.37628	9586
244.3974	9515
244.41852	9460
244.43964	9372
244.46074	9272
244.48186	9305
244.50298	9295
244.52408	9251
244.5452	9286
244.56631	9246
244.58742	9134
244.60854	9076
244.62964	9034
244.65076	9025
244.67188	9014
244.69298	9003
244.7141	8971
244.7352	8971
244.75632	8848
244.77742	8872
244.79854	8778
244.81964	8788
244.84074	8678
244.86186	8643
244.88297	8609
244.90408	8527
244.92519	8474
244.94629	8457
244.96741	8470
244.98851	8365
245.00961	8296
245.03073	8242
245.05183	8263
245.07294	8204
245.09404	8121
245.11516	8104
245.13626	8092
245.15736	8090
245.17847	8072
245.19957	8052
245.22067	8043
245.24178	7966
245.26289	7942
245.284	7870
245.3051	7845
245.3262	7820
245.34731	7712
245.36841	7708
245.38951	7601
245.41061	7579
245.43172	7553
245.45282	7577
245.47392	7517
245.49503	7512
245.51611	7495
245.53722	7384
245.55832	7376
245.57942	7334
245.60052	7284
245.62163	7248
245.64272	7254
245.66382	7172
245.68492	7127
245.70602	7080
245.72711	7059
245.74821	7065
245.76932	6987
245.79042	7012
245.81151	6940
245.83261	6930
245.85371	6943
245.8748	6864
245.8959	6844
245.91699	6830
245.9381	6787
245.95918	6739
245.98029	6684
246.00137	6702
246.02248	6684
246.04356	6658
246.06467	6583
246.08575	6619
246.10686	6546
246.12794	6562
246.14905	6546
246.17014	6478
246.19122	6439
246.21233	6409
246.23341	6345
246.2545	6365
246.2756	6316
246.29669	6300
246.31778	6253
246.33887	6220
246.35997	6233
246.38106	6185
246.40215	6212
246.42323	6103
246.44432	6110
246.46542	6079
246.48651	6072
246.5076	6016
246.52869	6072
246.54977	6016
246.57086	5980
246.59195	5985
246.61304	5950
246.63412	5968
246.65521	5908
246.6763	5905
246.69739	5858
246.71848	5769
