# Columns are Wavelength, tx_c, tx_t, tx_l, tx_r, tx_b
262.09213 0.02801 0.02866 0.03257 0.02671 0.02736
262.10195 0.02248 0.02793 0.01908 0.03202 0.03338
262.11179 0.03047 0.03250 0.03386 0.03250 0.02506
262.12162 0.03782 0.03175 0.03782 0.02634 0.03850
262.13144 0.03777 0.03777 0.04182 0.03440 0.03508
262.14125 0.02781 0.03324 0.03256 0.03256 0.03189
262.15107 0.03217 0.03423 0.03491 0.03354 0.03149
262.16090 0.03341 0.03341 0.03409 0.03273 0.03273
262.17071 0.03573 0.03304 0.03506 0.02967 0.03304
262.18053 0.02971 0.04187 0.03714 0.03309 0.03714
262.19036 0.03929 0.04132 0.04064 0.03996 0.04200
262.20017 0.04019 0.04496 0.03678 0.04155 0.04427
262.20999 0.02921 0.03397 0.03804 0.03465 0.03737
262.21981 0.03388 0.04473 0.04744 0.03863 0.03117
262.22963 0.03678 0.04291 0.03542 0.02452 0.03951
262.23945 0.02950 0.02538 0.03087 0.03979 0.03156
262.24927 0.02794 0.03816 0.03271 0.03066 0.03066
262.25908 0.03962 0.03828 0.04231 0.02619 0.03559
262.26891 0.04275 0.04342 0.03607 0.03607 0.03607
262.27873 0.03100 0.03032 0.03976 0.02965 0.03032
262.28854 0.04066 0.03998 0.03659 0.04608 0.02914
262.29837 0.03069 0.04364 0.03342 0.03683 0.03205
262.30819 0.02588 0.03269 0.02929 0.03746 0.03542
262.31800 0.03141 0.02868 0.02800 0.03756 0.03073
262.32782 0.03300 0.03437 0.03300 0.02612 0.03643
262.33765 0.02965 0.02345 0.02552 0.01793 0.02759
262.34743 0.02605 0.02811 0.03976 0.03428 0.03634
262.35725 0.03498 0.02949 0.03223 0.03840 0.03772
262.36707 0.02892 0.03924 0.03098 0.03442 0.03098
262.37689 0.03241 0.03448 0.04068 0.02827 0.03517
262.38671 0.03435 0.04603 0.04329 0.03641 0.03710
262.39653 0.04466 0.04191 0.04741 0.04604 0.04466
262.40634 0.03154 0.04595 0.03223 0.03840 0.04389
262.41617 0.03903 0.03971 0.03766 0.03971 0.04382
262.42599 0.03979 0.04253 0.03361 0.03156 0.04047
262.43580 0.03105 0.03381 0.03381 0.02553 0.02484
262.44563 0.03321 0.03943 0.04151 0.03597 0.03459
262.45545 0.02554 0.02899 0.03451 0.02209 0.03382
262.46523 0.03731 0.04214 0.03800 0.03869 0.04353
262.47505 0.03877 0.04085 0.03877 0.03531 0.04085
262.48488 0.03819 0.04097 0.03611 0.03680 0.04305
262.49469 0.03171 0.04412 0.04619 0.04481 0.04550
262.50451 0.04085 0.04493 0.04017 0.03472 0.04357
262.51433 0.02581 0.02241 0.03260 0.02309 0.03464
262.52415 0.02662 0.04437 0.04300 0.03345 0.04778
262.53397 0.03496 0.03016 0.03976 0.02742 0.03702
262.54376 0.01718 0.03092 0.03298 0.02680 0.03848
262.55358 0.03294 0.04460 0.03568 0.04254 0.04735
262.56340 0.03620 0.02801 0.03279 0.04030 0.03415
262.57322 0.03132 0.03472 0.04289 0.03813 0.03608
262.58303 0.03299 0.03165 0.03905 0.02424 0.03501
262.59286 0.03487 0.03554 0.04091 0.03554 0.04158
262.60265 0.04022 0.04156 0.04156 0.03955 0.03150
262.61246 0.04364 0.04499 0.04499 0.03626 0.04432
262.62228 0.01952 0.03096 0.03500 0.02557 0.03163
262.63211 0.03566 0.03970 0.02960 0.03028 0.03566
262.64192 0.02694 0.03435 0.03906 0.02761 0.03637
262.65174 0.03696 0.03629 0.03965 0.02688 0.03763
262.66153 0.03079 0.03414 0.04017 0.03481 0.02678
262.67135 0.02813 0.03349 0.03349 0.03081 0.03818
262.68117 0.03702 0.03635 0.03837 0.04308 0.03837
262.69098 0.03572 0.03101 0.03303 0.03977 0.03033
262.70078 0.02827 0.03770 0.03837 0.02154 0.04241
262.71060 0.02624 0.03230 0.04172 0.03835 0.03835
262.72041 0.04262 0.03518 0.03788 0.04059 0.04262
262.73023 0.02641 0.02776 0.02980 0.02912 0.02776
262.74006 0.03587 0.02775 0.04061 0.02301 0.03181
262.74984 0.04342 0.04138 0.04545 0.04952 0.04477
262.75966 0.03672 0.03468 0.03060 0.02720 0.02924
262.76949 0.04143 0.03532 0.04143 0.03803 0.04075
262.77930 0.03247 0.03653 0.03721 0.03112 0.03586
262.78909 0.03786 0.03989 0.03719 0.04057 0.04125
262.79891 0.02968 0.03913 0.04722 0.03643 0.04250
262.80873 0.03159 0.03898 0.03696 0.03495 0.03629
262.81852 0.03408 0.03141 0.04010 0.03542 0.02874
262.82834 0.04162 0.04028 0.05237 0.04095 0.04565
262.83815 0.03498 0.03565 0.04305 0.03767 0.03834
262.84798 0.03624 0.03692 0.03692 0.04027 0.03692
262.85777 0.03636 0.03165 0.02828 0.03771 0.03502
262.86758 0.03108 0.03311 0.03581 0.03311 0.03919
262.87741 0.04266 0.04130 0.04062 0.03385 0.04469
262.88720 0.03792 0.03724 0.02979 0.03589 0.04402
262.89701 0.03728 0.03796 0.03321 0.03660 0.03728
262.90683 0.03951 0.03678 0.03065 0.02793 0.04291
262.91662 0.03007 0.03212 0.03690 0.03417 0.03690
262.92644 0.04359 0.04768 0.04768 0.04631 0.04768
262.93626 0.03328 0.03328 0.03464 0.03804 0.03872
262.94607 0.03467 0.04487 0.04147 0.03875 0.04011
262.95587 0.03199 0.03608 0.03608 0.04016 0.03472
262.96569 0.03608 0.03813 0.04085 0.02587 0.03676
262.97547 0.03952 0.03066 0.03816 0.03543 0.04020
262.98530 0.02594 0.03686 0.02867 0.03072 0.02867
262.99512 0.04304 0.04236 0.04168 0.03416 0.03758
263.00490 0.05766 0.04816 0.04273 0.03595 0.04884
263.01472 0.03434 0.02761 0.03030 0.03097 0.02828
263.02455 0.03020 0.02617 0.03020 0.02617 0.02349
263.03433 0.04367 0.04367 0.02822 0.03897 0.03494
263.04415 0.03092 0.02756 0.02823 0.02823 0.02689
263.05398 0.02553 0.03091 0.02889 0.02486 0.03628
263.06376 0.03632 0.03296 0.03296 0.02892 0.03901
263.07358 0.04455 0.03847 0.03510 0.03847 0.04590
263.08336 0.03698 0.03698 0.03832 0.03563 0.04505
263.09319 0.04565 0.03558 0.03894 0.03155 0.03155
263.10301 0.03092 0.04101 0.03899 0.03025 0.03496
263.11279 0.03984 0.03579 0.04795 0.03579 0.03309
263.12261 0.03046 0.03790 0.03452 0.03723 0.03858
263.13241 0.03324 0.03121 0.04002 0.02374 0.04002
263.14222 0.03803 0.03124 0.04550 0.03871 0.04347
263.15201 0.02912 0.02980 0.03996 0.02980 0.03183
263.16184 0.03904 0.04308 0.03501 0.03904 0.04645
263.17165 0.03262 0.03395 0.02796 0.02729 0.01797
263.18144 0.04112 0.03448 0.03714 0.03647 0.03448
263.19126 0.02991 0.02792 0.02925 0.03191 0.02991
263.20105 0.03601 0.04668 0.04534 0.03867 0.03534
263.21087 0.03275 0.03543 0.03275 0.03676 0.03543
263.22065 0.03330 0.03396 0.02864 0.03197 0.03463
263.23047 0.04306 0.04373 0.04704 0.04306 0.04770
263.24027 0.03497 0.03035 0.03958 0.02837 0.04024
263.25008 0.04449 0.04253 0.05235 0.04319 0.04908
263.25987 0.03395 0.03525 0.03656 0.03525 0.03982
263.26970 0.03540 0.03934 0.04262 0.03803 0.04262
263.27948 0.03544 0.03741 0.03347 0.02822 0.04200
263.28930 0.03916 0.04242 0.03981 0.03785 0.03981
263.29909 0.03343 0.02950 0.03016 0.03933 0.03343
263.30891 0.03877 0.07097 0.04074 0.03023 0.04271
263.31870 0.03214 0.04460 0.03739 0.03608 0.03870
263.32852 0.03874 0.03809 0.04071 0.03874 0.03283
263.33830 0.03808 0.04333 0.03808 0.03283 0.04530
263.34813 0.03687 0.03095 0.03160 0.03029 0.03819
263.35791 0.03486 0.04275 0.04275 0.03617 0.03551
263.36773 0.04407 0.04407 0.03749 0.04012 0.03946
263.37753 0.03424 0.03819 0.04280 0.04148 0.03556
263.38734 0.03643 0.04173 0.04438 0.04438 0.04107
263.39713 0.02991 0.03124 0.02925 0.03523 0.02991
263.40695 0.02655 0.02921 0.02921 0.03518 0.02655
263.41674 0.03849 0.04180 0.03849 0.03318 0.04114
263.42656 0.02650 0.03313 0.03180 0.03313 0.03512
263.43635 0.03251 0.04445 0.04511 0.04246 0.04776
263.44613 0.03794 0.04260 0.04260 0.03661 0.04593
263.45596 0.04187 0.03323 0.03722 0.03589 0.03921
263.46574 0.03769 0.03372 0.04298 0.03372 0.04298
263.47556 0.03742 0.03348 0.03151 0.03019 0.03216
263.48536 0.03077 0.03208 0.03863 0.03732 0.03994
263.49517 0.03990 0.04775 0.04645 0.03925 0.03925
263.50496 0.02873 0.03525 0.03917 0.03068 0.03460
263.51475 0.03792 0.03727 0.03596 0.03661 0.03596
263.52457 0.03997 0.03866 0.03146 0.03604 0.03735
263.53436 0.03882 0.04803 0.04014 0.04211 0.04343
263.54418 0.03684 0.03948 0.03816 0.03619 0.05527
263.55396 0.02560 0.03480 0.04005 0.03414 0.03545
263.56376 0.04063 0.04391 0.03604 0.03670 0.04391
263.57357 0.04301 0.03838 0.04500 0.04698 0.03441
263.58336 0.03650 0.03717 0.03982 0.03783 0.04181
263.59316 0.04500 0.03904 0.04368 0.03772 0.04037
263.60297 0.03036 0.03630 0.03564 0.04092 0.03894
263.61276 0.03755 0.03820 0.04282 0.03096 0.03820
263.62255 0.04084 0.04281 0.04216 0.03359 0.03689
263.63237 0.04534 0.04074 0.04206 0.04272 0.03877
263.64216 0.03882 0.05067 0.05001 0.05330 0.04343
263.65198 0.03309 0.03309 0.04500 0.03838 0.03243
263.66177 0.03914 0.03450 0.03914 0.03781 0.03715
263.67156 0.03042 0.03835 0.03835 0.03240 0.02579
263.68137 0.03350 0.03941 0.03415 0.04204 0.03678
263.69116 0.04386 0.04647 0.04713 0.04320 0.03993
263.70096 0.04304 0.04500 0.04239 0.03782 0.04500
263.71074 0.03642 0.03707 0.04097 0.03317 0.03967
263.72056 0.04430 0.04495 0.04951 0.03844 0.05082
263.73035 0.04454 0.04651 0.05044 0.04127 0.04978
263.74014 0.04269 0.03743 0.03875 0.03875 0.04794
263.74996 0.03351 0.04533 0.04008 0.03022 0.04139
263.75974 0.04263 0.04001 0.04788 0.04001 0.04984
263.76954 0.03798 0.04518 0.03602 0.04322 0.04518
263.77933 0.04102 0.04819 0.04949 0.04623 0.05209
263.78914 0.03451 0.04298 0.04102 0.03321 0.03842
263.79893 0.04766 0.04113 0.03787 0.03983 0.04571
263.80873 0.04660 0.04069 0.05119 0.04660 0.04332
263.81854 0.02689 0.04197 0.03410 0.03017 0.03935
263.82833 0.04996 0.04672 0.04802 0.05321 0.05191
263.83811 0.04138 0.03944 0.03362 0.02974 0.04138
263.84791 0.03631 0.04085 0.04474 0.04863 0.04474
263.85773 0.03831 0.04415 0.04610 0.04091 0.04805
263.86751 0.03570 0.03635 0.04479 0.03181 0.03765
263.87731 0.04559 0.03387 0.03713 0.03322 0.03713
263.88710 0.03122 0.04032 0.03577 0.03902 0.03837
263.89688 0.02982 0.02982 0.02399 0.03112 0.03177
263.90670 0.03157 0.03801 0.03286 0.03350 0.03414
263.91649 0.04032 0.04096 0.04480 0.03648 0.04736
263.92628 0.03960 0.03832 0.03832 0.04790 0.04854
263.93607 0.03592 0.04041 0.04426 0.04041 0.04426
263.94586 0.03982 0.04047 0.04496 0.04432 0.04111
263.95568 0.03697 0.04143 0.03888 0.03633 0.04080
263.96547 0.03936 0.04063 0.04571 0.03365 0.04762
263.97525 0.04836 0.05091 0.04581 0.04200 0.04136
263.98505 0.03493 0.03937 0.03048 0.03239 0.03747
263.99483 0.04515 0.03816 0.04007 0.03943 0.04070
264.00465 0.04973 0.05356 0.04144 0.04336 0.05101
264.01444 0.05094 0.04967 0.05349 0.04012 0.04712
264.02423 0.04202 0.03947 0.03884 0.04266 0.04075
264.03402 0.04333 0.04078 0.03760 0.03696 0.04461
264.04381 0.04204 0.04650 0.04841 0.04905 0.04713
264.05360 0.03847 0.03911 0.03398 0.03142 0.04039
264.06339 0.04573 0.03929 0.04444 0.04251 0.03671
264.07320 0.04765 0.04507 0.04250 0.04056 0.04958
264.08299 0.03332 0.03780 0.04229 0.03588 0.03908
264.09279 0.04722 0.05424 0.04467 0.04850 0.04594
264.10257 0.03745 0.04190 0.04063 0.03999 0.03872
264.11236 0.04145 0.03380 0.03953 0.03507 0.03953
264.12215 0.03664 0.04178 0.04114 0.03921 0.03857
264.13194 0.03709 0.04477 0.04029 0.04349 0.03837
264.14173 0.03745 0.03491 0.03936 0.02857 0.03809
264.15154 0.03231 0.03928 0.03865 0.03611 0.03421
264.16134 0.04628 0.04502 0.05706 0.04692 0.04185
264.17113 0.03985 0.04680 0.04933 0.03921 0.04554
264.18091 0.03982 0.03729 0.05246 0.04361 0.04487
264.19070 0.02842 0.03790 0.03221 0.02969 0.03853
264.20050 0.04946 0.04946 0.04565 0.03677 0.04628
264.21028 0.04198 0.04326 0.04389 0.04453 0.04262
264.22007 0.04834 0.04070 0.04770 0.05025 0.04961
264.22986 0.03873 0.03810 0.04635 0.04063 0.04000
264.23965 0.04220 0.04475 0.04987 0.04859 0.04795
264.24944 0.03716 0.04036 0.04100 0.03588 0.04549
264.25922 0.04581 0.04327 0.04836 0.03500 0.03818
264.26902 0.04567 0.03742 0.04567 0.04123 0.04250
264.27880 0.04176 0.05315 0.04999 0.04936 0.05125
264.28859 0.03918 0.04044 0.03981 0.03665 0.04107
264.29838 0.03727 0.03664 0.02780 0.03854 0.04106
264.30820 0.03923 0.04429 0.04365 0.03796 0.04176
264.31799 0.03826 0.04018 0.04273 0.04591 0.04847
264.32778 0.03735 0.04701 0.04508 0.03993 0.05538
264.33757 0.03943 0.04202 0.04073 0.04978 0.04719
264.34736 0.04385 0.04321 0.03998 0.03676 0.03095
264.35714 0.05549 0.05356 0.04581 0.04968 0.04968
264.36693 0.03845 0.03461 0.04358 0.03653 0.03205
264.37673 0.04714 0.04714 0.05352 0.04141 0.04778
264.38651 0.04385 0.03940 0.04830 0.04194 0.04575
264.39630 0.04395 0.04204 0.04395 0.04204 0.04841
264.40608 0.04927 0.04543 0.05182 0.04223 0.05438
264.41585 0.04029 0.03837 0.04348 0.03965 0.04732
264.42564 0.04613 0.04805 0.04741 0.05125 0.04485
264.43542 0.03583 0.04159 0.04735 0.04031 0.04159
264.44522 0.04257 0.05273 0.04829 0.04638 0.04638
264.45500 0.04286 0.05294 0.05231 0.04916 0.05799
264.46479 0.03777 0.03840 0.04344 0.03777 0.04973
264.47458 0.03593 0.03908 0.04475 0.04223 0.03971
264.48437 0.03718 0.04600 0.03718 0.03844 0.03970
264.49416 0.04443 0.04631 0.05444 0.04380 0.04756
264.50395 0.03855 0.04042 0.04477 0.03482 0.03980
264.51374 0.04536 0.04598 0.03852 0.04101 0.05219
264.52353 0.04233 0.04295 0.04233 0.04544 0.04606
264.53331 0.04231 0.04605 0.05289 0.04605 0.04916
264.54310 0.04047 0.03611 0.04856 0.04172 0.04047
264.55290 0.04248 0.03873 0.04123 0.04435 0.03998
264.56268 0.03709 0.03960 0.04589 0.03960 0.04715
264.57244 0.04275 0.04401 0.04338 0.03898 0.04904
264.58222 0.04653 0.04528 0.04716 0.04339 0.04465
264.59202 0.03642 0.04270 0.03893 0.03077 0.03956
264.60181 0.05039 0.05291 0.04913 0.04976 0.05102
264.61159 0.03882 0.04759 0.04508 0.04133 0.05009
264.62139 0.04919 0.04857 0.05168 0.04732 0.05044
264.63117 0.04344 0.04158 0.04344 0.05213 0.04344
264.64096 0.03111 0.03795 0.04231 0.03360 0.04044
264.65072 0.04595 0.04285 0.04595 0.04409 0.05092
264.66051 0.03848 0.05213 0.05151 0.04468 0.04840
264.67030 0.04629 0.04876 0.05185 0.04753 0.05123
264.68009 0.04448 0.04263 0.04448 0.03954 0.04139
264.68988 0.03446 0.04061 0.04430 0.03199 0.04061
264.69967 0.03803 0.04048 0.04416 0.03251 0.03864
264.70945 0.04426 0.04672 0.05225 0.05225 0.05409
264.71921 0.04762 0.03958 0.04700 0.04082 0.04391
264.72901 0.05082 0.05144 0.05330 0.04896 0.05640
264.73879 0.04158 0.04158 0.04344 0.03785 0.03847
264.74858 0.03727 0.03417 0.03976 0.04162 0.03789
264.75836 0.03775 0.04890 0.04642 0.04333 0.04642
264.76813 0.04739 0.04555 0.04616 0.04555 0.04863
264.77792 0.04552 0.05228 0.04244 0.05536 0.04675
264.78770 0.04503 0.05182 0.04503 0.04935 0.04626
264.79750 0.04626 0.04194 0.05058 0.04503 0.04194
264.80728 0.05050 0.04927 0.04865 0.04803 0.04680
264.81704 0.03690 0.04183 0.03936 0.03506 0.04859
264.82683 0.05591 0.04976 0.04792 0.04731 0.05099
264.83662 0.04358 0.04542 0.04665 0.04296 0.03989
264.84641 0.04040 0.04040 0.04530 0.04836 0.04223
264.85616 0.04455 0.04211 0.04089 0.04272 0.04944
264.86596 0.04411 0.04656 0.04717 0.04717 0.04411
264.87575 0.04625 0.04810 0.04933 0.03823 0.04193
264.88553 0.04938 0.04938 0.05247 0.05123 0.05308
264.89529 0.05729 0.05359 0.05298 0.04682 0.04497
264.90508 0.03945 0.04499 0.04191 0.04376 0.05732
264.91487 0.04863 0.05048 0.05417 0.04124 0.05048
264.92466 0.04519 0.04824 0.05069 0.04275 0.04641
264.93441 0.04377 0.04802 0.04985 0.04012 0.04620
264.94421 0.04459 0.04276 0.04581 0.04520 0.05742
264.95399 0.04561 0.04623 0.04931 0.05239 0.04623
264.96378 0.04040 0.03978 0.04600 0.05843 0.04849
264.97355 0.04539 0.04166 0.05596 0.04601 0.04539
264.98333 0.04529 0.04715 0.04343 0.03971 0.05087
264.99312 0.03592 0.04335 0.04087 0.04149 0.04335
265.00287 0.03900 0.04210 0.04952 0.04581 0.04705
265.01267 0.04862 0.04800 0.04554 0.04616 0.05231
265.02246 0.05125 0.04693 0.05249 0.04508 0.05249
265.03221 0.04331 0.04826 0.05136 0.05074 0.05012
265.04201 0.05261 0.05447 0.05447 0.05199 0.06004
265.05179 0.04875 0.04814 0.05369 0.03826 0.04875
265.06155 0.04935 0.05243 0.04750 0.05613 0.04750
265.07134 0.04445 0.04754 0.04445 0.04260 0.04754
265.08113 0.05554 0.04567 0.04505 0.04567 0.04999
265.09089 0.05853 0.04991 0.05114 0.04744 0.05175
265.10067 0.04993 0.05424 0.06164 0.05239 0.06102
265.11046 0.04876 0.04876 0.04568 0.04321 0.05000
265.12023 0.05339 0.04346 0.04781 0.04905 0.05091
265.13001 0.05610 0.05111 0.06046 0.05049 0.04613
265.13980 0.04632 0.05133 0.04695 0.04131 0.04444
265.14956 0.04506 0.05320 0.05383 0.04632 0.05383
265.15935 0.06036 0.05351 0.05289 0.04729 0.05351
265.16910 0.03957 0.04637 0.05132 0.04328 0.05008
265.17889 0.04381 0.04320 0.04381 0.04320 0.04813
265.18869 0.03766 0.04198 0.04939 0.04074 0.04507
265.19844 0.04085 0.04332 0.05198 0.04580 0.05198
265.20823 0.04290 0.04663 0.04600 0.03917 0.04352
265.21799 0.05265 0.04831 0.05079 0.05760 0.05017
265.22778 0.03691 0.04490 0.04798 0.04736 0.03875
265.23757 0.05140 0.05385 0.05446 0.04467 0.05262
265.24732 0.06201 0.06201 0.06201 0.05106 0.05775
265.25712 0.04128 0.04796 0.04614 0.04431 0.04735
265.26687 0.04689 0.04689 0.05176 0.04932 0.04689
265.27666 0.04564 0.04686 0.04747 0.04138 0.06329
265.28642 0.04323 0.05054 0.05236 0.04932 0.04628
265.29621 0.03657 0.05364 0.04815 0.03840 0.05181
265.30597 0.04637 0.04576 0.04637 0.04332 0.04698
265.31575 0.04936 0.06216 0.05058 0.05607 0.05485
265.32555 0.04436 0.04071 0.04922 0.04497 0.04253
265.33531 0.05477 0.05355 0.05112 0.05355 0.04868
265.34509 0.04222 0.04773 0.05263 0.05263 0.04590
265.35485 0.04229 0.04658 0.05270 0.04719 0.05270
265.36464 0.04853 0.04300 0.05283 0.04546 0.04975
265.37440 0.04425 0.03811 0.04487 0.03688 0.04548
265.38419 0.05035 0.05097 0.05649 0.05342 0.05035
265.39395 0.05650 0.05589 0.05773 0.05527 0.05773
265.40374 0.04787 0.05401 0.05217 0.04051 0.04849
265.41349 0.04632 0.04694 0.04509 0.04385 0.05003
265.42328 0.05078 0.05636 0.05140 0.05326 0.05512
265.43304 0.05002 0.04508 0.05867 0.04323 0.05064
265.44283 0.04431 0.04431 0.05047 0.04862 0.05047
265.45259 0.04721 0.05825 0.05764 0.05151 0.05396
265.46238 0.05082 0.04531 0.04286 0.04470 0.04470
265.47214 0.04513 0.04330 0.05123 0.04391 0.05245
265.48189 0.05052 0.05782 0.05782 0.05843 0.05660
265.49168 0.05070 0.05436 0.05253 0.05864 0.04642
265.50145 0.05500 0.04644 0.05805 0.05072 0.04889
265.51123 0.03788 0.04827 0.05682 0.04643 0.04705
265.52099 0.05259 0.05443 0.05381 0.05259 0.05871
265.53077 0.04840 0.05085 0.05697 0.05391 0.05146
265.54054 0.04607 0.04607 0.05345 0.04853 0.05099
265.55033 0.05235 0.05789 0.05358 0.05235 0.05112
265.56008 0.05683 0.04880 0.04941 0.05497 0.05744
265.56985 0.04712 0.04650 0.05766 0.05208 0.05580
265.57963 0.05487 0.05674 0.05736 0.05424 0.05923
265.58939 0.05226 0.05537 0.05723 0.05848 0.05039
265.59917 0.04660 0.05033 0.05343 0.04101 0.05592
265.60894 0.04743 0.04931 0.05929 0.05867 0.05680
265.61870 0.05510 0.05322 0.05197 0.05385 0.06637
265.62848 0.05340 0.05340 0.06157 0.05403 0.06094
265.63825 0.05158 0.05850 0.05410 0.05850 0.05158
265.64803 0.05046 0.04983 0.05803 0.05109 0.05550
265.65779 0.05620 0.05747 0.05999 0.05557 0.05747
265.66754 0.05546 0.05420 0.05546 0.04789 0.05357
265.67734 0.04819 0.04694 0.05445 0.04694 0.04756
265.68710 0.05666 0.05542 0.06102 0.05666 0.05355
265.69685 0.05342 0.06149 0.05652 0.06211 0.05963
265.70665 0.04848 0.05034 0.04910 0.04910 0.05096
265.71640 0.05115 0.05302 0.05302 0.05240 0.05364
265.72616 0.04588 0.05090 0.05342 0.04776 0.06096
265.73595 0.05693 0.05187 0.06452 0.05693 0.05503
265.74571 0.05307 0.05433 0.06318 0.05054 0.05939
265.75547 0.05172 0.05235 0.06245 0.05929 0.05614
265.76525 0.06366 0.06493 0.05988 0.06619 0.06303
265.77501 0.05553 0.05931 0.06310 0.05742 0.06247
265.78477 0.06018 0.05891 0.06144 0.06144 0.06841
265.79456 0.05642 0.05959 0.06403 0.05642 0.05959
265.80432 0.06295 0.06613 0.06168 0.06168 0.06550
265.81408 0.05463 0.06543 0.06226 0.05019 0.05845
265.82387 0.06709 0.05000 0.06203 0.05000 0.06266
265.83362 0.06084 0.05268 0.05206 0.06021 0.05896
265.84338 0.05174 0.06047 0.05735 0.05735 0.06172
265.85314 0.04679 0.05178 0.05989 0.05740 0.05864
265.86293 0.04697 0.05574 0.05323 0.04446 0.05386
265.87269 0.05920 0.05290 0.06109 0.05038 0.05731
265.88245 0.05719 0.05593 0.06473 0.05530 0.06724
265.89224 0.06140 0.06579 0.06203 0.06203 0.05827
265.90199 0.04805 0.05866 0.05741 0.05117 0.05679
265.91175 0.06248 0.05691 0.06557 0.05939 0.05815
265.92152 0.05928 0.06484 0.05743 0.05681 0.05990
265.93127 0.06199 0.06075 0.06075 0.05951 0.05889
265.94106 0.05392 0.06074 0.06383 0.05950 0.06383
265.95082 0.06099 0.05853 0.06408 0.05853 0.07085
265.96058 0.06275 0.06029 0.06029 0.05967 0.06214
265.97033 0.05551 0.06538 0.06106 0.06106 0.05613
265.98012 0.05996 0.06181 0.05996 0.06243 0.06243
265.98989 0.05422 0.05545 0.05237 0.04805 0.05360
265.99964 0.05424 0.05486 0.06225 0.04869 0.05486
266.00940 0.05194 0.05688 0.06245 0.04823 0.05008
266.01915 0.05884 0.05141 0.05512 0.05389 0.05141
266.02895 0.06157 0.05410 0.05597 0.05224 0.05908
266.03870 0.05224 0.05349 0.05349 0.04354 0.05784
266.04846 0.04795 0.05418 0.05543 0.05293 0.05231
266.05823 0.06053 0.05866 0.05366 0.04992 0.05741
266.06798 0.05753 0.06441 0.05565 0.06253 0.06816
266.07777 0.06354 0.07039 0.06727 0.05918 0.06727
266.08752 0.06449 0.06573 0.06821 0.06077 0.06573
266.09729 0.04597 0.05094 0.04162 0.05653 0.06274
266.10704 0.06176 0.07112 0.06924 0.05989 0.06425
266.11680 0.05553 0.05179 0.05615 0.05241 0.06551
266.12657 0.05874 0.06306 0.06677 0.06121 0.05132
266.13632 0.06161 0.06099 0.05914 0.05483 0.06592
266.14611 0.06521 0.06767 0.06521 0.06213 0.06582
266.15586 0.05226 0.05041 0.06332 0.05902 0.05533
266.16563 0.06015 0.05830 0.06383 0.05708 0.06751
266.17538 0.04780 0.05331 0.06067 0.05515 0.04902
266.18514 0.06218 0.05848 0.06218 0.06156 0.06895
266.19491 0.05803 0.05494 0.06173 0.05803 0.06667
266.20466 0.05541 0.04987 0.06095 0.05233 0.05603
266.21442 0.06456 0.07132 0.06579 0.06087 0.06763
266.22417 0.05230 0.06522 0.06583 0.05722 0.06337
266.23397 0.05523 0.05523 0.06516 0.05709 0.06702
266.24372 0.06267 0.06019 0.06330 0.06143 0.07012
266.25348 0.05888 0.07066 0.06012 0.06012 0.06508
266.26325 0.05696 0.05510 0.05882 0.05077 0.05510
266.27300 0.06362 0.07227 0.06794 0.05991 0.06671
266.28276 0.05903 0.06702 0.07440 0.05780 0.06333
266.29251 0.05318 0.06602 0.06296 0.05807 0.05563
266.30228 0.06055 0.05993 0.05626 0.06605 0.06238
266.31203 0.06081 0.05958 0.07309 0.06265 0.07739
266.32179 0.06332 0.06578 0.05348 0.06024 0.05901
266.33154 0.06806 0.06928 0.07174 0.07296 0.07971
266.34131 0.06883 0.06822 0.07127 0.07127 0.06944
266.35107 0.06393 0.06515 0.06576 0.05662 0.06393
266.36082 0.05166 0.06747 0.05653 0.05774 0.05713
266.37059 0.06247 0.05944 0.05822 0.06550 0.06732
266.38034 0.06738 0.06009 0.06374 0.06434 0.06859
266.39010 0.06721 0.07210 0.07638 0.07088 0.07516
266.39985 0.05700 0.06742 0.06865 0.05823 0.06681
266.40962 0.06973 0.07217 0.07462 0.07156 0.07401
266.41938 0.05676 0.05738 0.05860 0.05432 0.05738
266.42913 0.05600 0.05843 0.05235 0.06148 0.05539
266.43890 0.05708 0.05891 0.05951 0.05830 0.06680
266.44865 0.06770 0.06770 0.07435 0.06952 0.07314
266.45841 0.07090 0.07817 0.06847 0.07575 0.07696
266.46816 0.06106 0.06777 0.07143 0.06716 0.06411
266.47793 0.06544 0.06850 0.06911 0.06666 0.06788
266.48768 0.06914 0.07217 0.07157 0.07157 0.07217
266.49744 0.05911 0.05911 0.06575 0.06032 0.06092
266.50721 0.05722 0.05842 0.06625 0.05782 0.06083
266.51696 0.06815 0.07056 0.07358 0.06272 0.07418
266.52672 0.06874 0.07658 0.08261 0.07899 0.07839
266.53647 0.06451 0.06090 0.06753 0.06150 0.07115
266.54624 0.06955 0.07136 0.07378 0.06955 0.08043
266.55599 0.06467 0.07011 0.06891 0.06891 0.06588
266.56575 0.07703 0.07282 0.07282 0.06680 0.07703
266.57552 0.06389 0.06747 0.07105 0.07165 0.06389
266.58527 0.06781 0.06662 0.06900 0.06543 0.07792
266.59503 0.06268 0.06925 0.07342 0.06745 0.06626
266.60478 0.06778 0.06778 0.07551 0.07075 0.07134
266.61452 0.06343 0.06698 0.06817 0.06758 0.06935
266.62427 0.05963 0.06671 0.06671 0.06435 0.06907
266.63403 0.07330 0.06443 0.06916 0.06739 0.06975
266.64378 0.06742 0.07393 0.06801 0.06624 0.06624
266.65355 0.06227 0.06523 0.07294 0.05574 0.06998
266.66331 0.07197 0.07257 0.06602 0.06781 0.06959
266.67306 0.06324 0.07338 0.07338 0.06623 0.07577
266.68283 0.07312 0.07015 0.07431 0.06658 0.07609
266.69255 0.07188 0.06951 0.07901 0.06951 0.07188
266.70231 0.07437 0.06485 0.07437 0.06306 0.07080
266.71206 0.06949 0.07308 0.07428 0.07188 0.07069
266.72183 0.06614 0.06493 0.06253 0.06794 0.06974
266.73158 0.07397 0.07216 0.07757 0.06735 0.07517
266.74134 0.07440 0.07260 0.08340 0.06420 0.07680
266.75111 0.06622 0.06921 0.07219 0.07338 0.07398
266.76083 0.07519 0.07282 0.08170 0.08111 0.08525
266.77059 0.06940 0.06584 0.06762 0.06406 0.07355
266.78034 0.07945 0.08124 0.07587 0.07288 0.06870
266.79011 0.07523 0.07344 0.08597 0.07941 0.08120
266.79986 0.06767 0.07242 0.07480 0.07124 0.07302
266.80959 0.06942 0.06705 0.07417 0.06883 0.06883
266.81935 0.07494 0.07791 0.08148 0.07553 0.07969
266.82911 0.07814 0.07873 0.08229 0.07577 0.08347
266.83886 0.06440 0.06735 0.06971 0.06381 0.06381
266.84862 0.07271 0.07035 0.07331 0.06739 0.07744
266.85836 0.06720 0.07434 0.07434 0.07850 0.07196
266.86811 0.08603 0.07647 0.08304 0.08065 0.08065
266.87787 0.07574 0.07275 0.07872 0.07037 0.07753
266.88763 0.07136 0.08087 0.08147 0.07552 0.08206
266.89739 0.07738 0.07858 0.08038 0.07558 0.07918
266.90711 0.07639 0.07338 0.08241 0.07278 0.07940
266.91687 0.06626 0.07999 0.08656 0.07462 0.07880
266.92663 0.08427 0.08546 0.08902 0.07893 0.08783
266.93639 0.08469 0.07995 0.08647 0.08528 0.07818
266.94612 0.06930 0.07226 0.07641 0.07463 0.08233
266.95588 0.07639 0.07757 0.08527 0.08053 0.08468
266.96564 0.06935 0.08002 0.07588 0.07054 0.07825
266.97536 0.07210 0.07984 0.08044 0.07388 0.07746
266.98512 0.07764 0.08185 0.09208 0.07884 0.08245
266.99488 0.07505 0.08111 0.08655 0.07929 0.08171
267.00464 0.07742 0.07803 0.08468 0.07803 0.07984
267.01436 0.07214 0.08426 0.08063 0.07517 0.08063
267.02413 0.07123 0.07847 0.08451 0.08149 0.07546
267.03388 0.07391 0.08172 0.08713 0.07812 0.08052
267.04361 0.08951 0.08593 0.09130 0.08593 0.08354
267.05337 0.08155 0.07315 0.07855 0.08574 0.07555
267.06313 0.08310 0.07948 0.08250 0.07467 0.07286
267.07286 0.08510 0.08027 0.08389 0.08148 0.08389
267.08261 0.07806 0.07746 0.07806 0.08169 0.07927
267.09237 0.07737 0.07919 0.08704 0.07616 0.08584
267.10210 0.08338 0.08578 0.09898 0.07798 0.08338
267.11186 0.08771 0.08592 0.09188 0.07876 0.09009
267.12161 0.08560 0.09273 0.09035 0.07906 0.08679
267.13135 0.08336 0.08514 0.08812 0.07740 0.09229
267.14110 0.07510 0.07510 0.08941 0.07808 0.08464
267.15086 0.07579 0.07935 0.08823 0.08586 0.08823
267.16059 0.08626 0.08685 0.09572 0.08744 0.09099
267.17035 0.08551 0.09200 0.09023 0.08020 0.09436
267.18011 0.07371 0.08196 0.08609 0.07430 0.08609
267.18983 0.08234 0.08175 0.08528 0.08351 0.08469
267.19960 0.08381 0.09384 0.09620 0.08558 0.08676
267.20932 0.07878 0.08885 0.09181 0.08056 0.09122
267.21908 0.08899 0.08899 0.09611 0.08721 0.08958
267.22883 0.08296 0.08771 0.09008 0.08711 0.08711
267.23857 0.08371 0.09019 0.08666 0.08783 0.09137
267.24832 0.08677 0.09150 0.08559 0.08736 0.08913
267.25805 0.08987 0.09105 0.10288 0.08987 0.10169
267.26782 0.08587 0.08117 0.08764 0.07470 0.09058
267.27757 0.08378 0.08964 0.09081 0.09023 0.08788
267.28730 0.08723 0.09075 0.08899 0.08431 0.09309
267.29705 0.08521 0.08698 0.09344 0.09403 0.10167
267.30679 0.08980 0.09920 0.10213 0.09450 0.10506
267.31654 0.08504 0.08446 0.10146 0.09325 0.09384
267.32627 0.09395 0.08870 0.08578 0.08578 0.09045
267.33603 0.08631 0.09622 0.08922 0.08980 0.09680
267.34576 0.09004 0.09237 0.09818 0.09062 0.09643
267.35551 0.09955 0.09723 0.09839 0.08971 0.09781
267.36524 0.09093 0.09673 0.09615 0.08514 0.09151
267.37500 0.09199 0.08733 0.09781 0.08617 0.09083
267.38476 0.08127 0.07659 0.09179 0.07483 0.08887
267.39449 0.08561 0.08795 0.09499 0.08912 0.10144
267.40425 0.08912 0.08795 0.09498 0.09264 0.09850
267.41398 0.09517 0.09809 0.10802 0.09109 0.09868
267.42373 0.08345 0.08867 0.09620 0.09156 0.09214
267.43346 0.08876 0.09166 0.10152 0.08470 0.09108
267.44322 0.09155 0.09447 0.09505 0.08922 0.09330
267.45295 0.09576 0.08701 0.10452 0.09401 0.10102
267.46267 0.09963 0.10604 0.11012 0.10779 0.10488
267.47244 0.09633 0.09924 0.09808 0.09691 0.10504
267.48216 0.09348 0.10161 0.09755 0.09697 0.10800
267.49192 0.10166 0.09932 0.10691 0.09873 0.10341
267.50164 0.09912 0.10205 0.10264 0.09912 0.10029
267.51141 0.10084 0.10260 0.10788 0.10319 0.11022
267.52113 0.09603 0.09603 0.10189 0.09545 0.10130
267.53089 0.09796 0.10265 0.10148 0.09092 0.11203
267.54063 0.09925 0.10571 0.10512 0.10219 0.10747
267.55038 0.09915 0.09739 0.10384 0.09035 0.10149
267.56011 0.09863 0.10627 0.10568 0.09335 0.10098
267.56983 0.10088 0.10967 0.11026 0.10674 0.11437
267.57960 0.09802 0.10211 0.10619 0.09919 0.11436
267.58932 0.09882 0.10172 0.11219 0.10056 0.10347
267.59908 0.09907 0.09208 0.09907 0.10024 0.10373
267.60881 0.09777 0.10480 0.11183 0.10597 0.11710
267.61857 0.10089 0.10443 0.11092 0.10384 0.11210
267.62829 0.10522 0.10936 0.12000 0.11113 0.11290
267.63802 0.09800 0.09977 0.10036 0.09209 0.10744
267.64778 0.10218 0.10395 0.10455 0.10691 0.10927
267.65751 0.10461 0.10047 0.11406 0.10106 0.10638
267.66723 0.10876 0.11527 0.11468 0.10936 0.11290
267.67700 0.10920 0.11751 0.11573 0.11454 0.11810
267.68673 0.10064 0.11425 0.10715 0.10241 0.11307
267.69648 0.10830 0.10771 0.11477 0.10594 0.11124
267.70621 0.10891 0.11067 0.11594 0.10423 0.11477
267.71594 0.10526 0.10467 0.11520 0.10000 0.10292
267.72570 0.11705 0.10886 0.12056 0.10242 0.11530
267.73542 0.11163 0.10928 0.11751 0.10987 0.11633
267.74516 0.11168 0.11463 0.11700 0.10459 0.12172
267.75491 0.11219 0.10806 0.10924 0.10687 0.10983
267.76464 0.10443 0.11505 0.12331 0.11564 0.12390
267.77436 0.11527 0.11586 0.12115 0.11174 0.12291
267.78413 0.11293 0.10587 0.11469 0.11116 0.11587
267.79385 0.12260 0.12260 0.12731 0.12201 0.12319
267.80358 0.10292 0.10588 0.12362 0.11120 0.11712
267.81334 0.11259 0.12085 0.12969 0.12321 0.12792
267.82307 0.11527 0.11995 0.11937 0.11176 0.12697
267.83279 0.11601 0.11718 0.11543 0.12126 0.12826
267.84252 0.11016 0.11540 0.12065 0.11191 0.11948
267.85229 0.12565 0.11688 0.13325 0.11572 0.13033
267.86201 0.11700 0.11817 0.12870 0.11466 0.11817
267.87174 0.12380 0.13314 0.13314 0.11329 0.12847
267.88149 0.12552 0.13017 0.13366 0.12785 0.13017
267.89123 0.12312 0.12138 0.12138 0.12138 0.12951
267.90095 0.10967 0.11953 0.12881 0.11431 0.12707
267.91068 0.11551 0.12538 0.12712 0.12190 0.12480
267.92044 0.11861 0.12268 0.13082 0.12093 0.13430
267.93017 0.12247 0.12247 0.13350 0.12073 0.13175
267.93989 0.12112 0.12285 0.13444 0.12401 0.13039
267.94962 0.11837 0.12650 0.13752 0.12534 0.13462
267.95938 0.12146 0.12669 0.13134 0.11623 0.12611
267.96911 0.12478 0.13000 0.12594 0.13174 0.13407
267.97883 0.12207 0.11745 0.12786 0.12150 0.13133
267.98857 0.11959 0.13230 0.14213 0.12710 0.12942
267.99829 0.13113 0.13344 0.13691 0.13286 0.13633
268.00805 0.12703 0.12992 0.12818 0.12241 0.13165
268.01777 0.12065 0.12988 0.13912 0.12700 0.13854
268.02751 0.12964 0.13022 0.13829 0.12330 0.12791
268.03723 0.12605 0.13820 0.14398 0.13415 0.13415
268.04696 0.13058 0.12768 0.14334 0.12593 0.14160
268.05672 0.13090 0.13381 0.14079 0.13439 0.13905
268.06645 0.13364 0.13014 0.13656 0.13131 0.14181
268.07618 0.13236 0.14056 0.13998 0.13119 0.14349
268.08590 0.12810 0.13922 0.14331 0.13278 0.14448
268.09564 0.13494 0.14137 0.15246 0.14312 0.14779
268.10536 0.13942 0.13825 0.14992 0.14000 0.14584
268.11512 0.13703 0.12948 0.14748 0.13529 0.14400
268.12485 0.14114 0.14577 0.16486 0.13999 0.15387
268.13458 0.13616 0.13153 0.14428 0.13616 0.14717
268.14430 0.12864 0.13734 0.15356 0.12864 0.14603
268.15403 0.13820 0.14167 0.14630 0.14225 0.13878
268.16376 0.14421 0.14190 0.14824 0.13901 0.14478
268.17349 0.14378 0.15183 0.16391 0.14953 0.16046
268.18321 0.14264 0.13401 0.14954 0.14091 0.14609
268.19298 0.13504 0.14423 0.14825 0.13216 0.14940
268.20270 0.13500 0.14878 0.14821 0.13959 0.14649
268.21243 0.13507 0.14599 0.15461 0.14657 0.16668
268.22215 0.14461 0.15095 0.16305 0.14576 0.16074
268.23189 0.14360 0.14879 0.15571 0.14764 0.14879
268.24161 0.13620 0.14425 0.15517 0.14195 0.15574
268.25134 0.13524 0.14272 0.15711 0.13927 0.14847
268.26107 0.15317 0.15837 0.16935 0.15432 0.16068
268.27080 0.14141 0.14664 0.15712 0.14723 0.15246
268.28052 0.16039 0.16272 0.16564 0.15398 0.16622
268.29025 0.15489 0.16132 0.17125 0.15430 0.16833
268.29998 0.15130 0.16182 0.16298 0.14838 0.16474
268.30974 0.15755 0.15930 0.16513 0.15405 0.16455
268.31946 0.16603 0.16661 0.17471 0.15909 0.17066
268.32920 0.14993 0.15223 0.17176 0.15337 0.16716
268.33892 0.15152 0.15209 0.16357 0.16070 0.16299
268.34865 0.16395 0.17083 0.17083 0.15535 0.15535
268.35837 0.16087 0.16087 0.16888 0.16144 0.16087
268.36811 0.16274 0.16561 0.18229 0.17021 0.17884
268.37783 0.15894 0.15491 0.17161 0.15491 0.16988
268.38756 0.15112 0.16727 0.17131 0.15804 0.17188
268.39730 0.15710 0.16803 0.17379 0.15825 0.16573
268.40702 0.16566 0.16968 0.17486 0.17313 0.17198
268.41675 0.16144 0.16431 0.17580 0.16833 0.17408
268.42648 0.17021 0.17194 0.18405 0.17367 0.17367
268.43621 0.15444 0.16721 0.17418 0.16025 0.16954
268.44593 0.16402 0.17511 0.17862 0.16344 0.17745
268.45566 0.17037 0.18204 0.18845 0.18204 0.18495
268.46539 0.16331 0.17716 0.19043 0.16562 0.17889
268.47512 0.16498 0.17415 0.18618 0.16613 0.17988
268.48484 0.15734 0.17107 0.18595 0.16535 0.18595
268.49458 0.16891 0.17807 0.19067 0.17692 0.17578
268.50430 0.17378 0.17896 0.19738 0.17839 0.18817
268.51400 0.17163 0.18377 0.19186 0.17394 0.18492
268.52372 0.18384 0.18326 0.19427 0.17572 0.18268
268.53346 0.17331 0.17966 0.18255 0.16926 0.17446
268.54318 0.17753 0.19189 0.20051 0.17868 0.19189
268.55291 0.18501 0.18158 0.20157 0.18444 0.19243
268.56264 0.18522 0.19544 0.19829 0.18806 0.19601
268.57237 0.17706 0.18845 0.20211 0.17877 0.19983
268.58209 0.18170 0.19488 0.20634 0.18342 0.18972
268.59182 0.18112 0.19369 0.20055 0.18055 0.19655
268.60155 0.17814 0.18383 0.19749 0.18098 0.19294
268.61128 0.18296 0.19490 0.20569 0.19092 0.19944
268.62100 0.18455 0.19420 0.20669 0.19363 0.20556
268.63071 0.19675 0.20753 0.21320 0.18711 0.20526
268.64043 0.19884 0.20055 0.22100 0.19202 0.21532
268.65016 0.19833 0.20745 0.21600 0.18637 0.20859
268.65988 0.19871 0.21185 0.22269 0.20042 0.21013
268.66962 0.19238 0.20436 0.20779 0.19409 0.20551
268.67934 0.19448 0.20649 0.21964 0.19676 0.20763
268.68907 0.19331 0.20938 0.22142 0.20479 0.21855
268.69880 0.20652 0.21517 0.22267 0.21402 0.22556
268.70850 0.21099 0.22139 0.21908 0.20636 0.22081
268.71822 0.21175 0.21002 0.22733 0.21463 0.22444
268.72795 0.21325 0.22130 0.23452 0.20635 0.22475
268.73768 0.20699 0.22477 0.23280 0.20814 0.22591
268.74741 0.20323 0.22441 0.23357 0.21067 0.22155
268.75713 0.21018 0.22392 0.23595 0.21877 0.23537
268.76684 0.22636 0.23667 0.23610 0.22349 0.23667
268.77656 0.23129 0.23129 0.24326 0.22731 0.24269
268.78629 0.21775 0.22171 0.24772 0.21435 0.23245
268.79601 0.22141 0.23160 0.24066 0.22707 0.23840
268.80575 0.22376 0.23625 0.23625 0.22717 0.23682
268.81544 0.22927 0.23778 0.26105 0.23835 0.24743
268.82517 0.22846 0.24316 0.25900 0.23864 0.24712
268.83490 0.23314 0.24678 0.25873 0.23314 0.24337
268.84463 0.22950 0.24320 0.25919 0.24149 0.25576
268.85435 0.23683 0.24881 0.26136 0.23626 0.25680
268.86405 0.23617 0.24698 0.26348 0.24641 0.24755
268.87378 0.22685 0.24570 0.25713 0.23085 0.25542
268.88351 0.24693 0.25326 0.26477 0.24060 0.25729
268.89323 0.22885 0.26343 0.25997 0.23634 0.25479
268.90294 0.24321 0.25356 0.27541 0.24321 0.25931
268.91266 0.24447 0.26111 0.27660 0.25365 0.27087
268.92239 0.26055 0.25481 0.27719 0.25309 0.27088
268.93211 0.24206 0.26490 0.27803 0.24663 0.26946
268.94182 0.25111 0.26367 0.27565 0.24826 0.27223
268.95154 0.25118 0.27011 0.28674 0.26151 0.27527
268.96127 0.25764 0.28127 0.28646 0.26398 0.28300
268.97097 0.25838 0.27453 0.28261 0.26011 0.27972
268.98070 0.26089 0.28096 0.28841 0.25860 0.28612
268.99042 0.27524 0.28554 0.30270 0.28382 0.29641
269.00015 0.27390 0.30186 0.30586 0.27904 0.29730
269.00985 0.27833 0.28917 0.30343 0.28175 0.29145
269.01958 0.26709 0.28934 0.30361 0.26480 0.29048
269.02930 0.28252 0.29910 0.31740 0.28309 0.31569
269.03901 0.28491 0.30727 0.30325 0.28204 0.30784
269.04873 0.28870 0.30936 0.31854 0.29444 0.32026
269.05846 0.28948 0.31126 0.31814 0.29808 0.32101
269.06815 0.28752 0.31736 0.31621 0.29211 0.31449
269.07789 0.30122 0.30579 0.32637 0.29436 0.31780
269.08761 0.31043 0.31725 0.33204 0.30816 0.32066
269.09731 0.30132 0.32065 0.33429 0.30644 0.32690
269.10704 0.30188 0.32357 0.33897 0.30530 0.32756
269.11677 0.31133 0.33479 0.35025 0.31820 0.33479
269.12646 0.31193 0.32503 0.34723 0.31421 0.34040
269.13619 0.31231 0.33712 0.34839 0.32020 0.33824
269.14589 0.32201 0.33949 0.36092 0.32765 0.35585
269.15562 0.31566 0.33821 0.35512 0.32693 0.33933
269.16534 0.32166 0.34472 0.35934 0.32616 0.35822
269.17505 0.32549 0.34516 0.35978 0.32830 0.35809
269.18477 0.33517 0.36230 0.36626 0.32726 0.37135
269.19447 0.33560 0.35827 0.37131 0.34467 0.37585
269.20419 0.33810 0.35905 0.37831 0.34546 0.37435
269.21393 0.33711 0.36404 0.37974 0.35282 0.37189
269.22362 0.34596 0.36765 0.37766 0.35486 0.38378
269.23335 0.35556 0.37393 0.38060 0.36447 0.38784
269.24305 0.35796 0.37741 0.39687 0.37074 0.39464
269.25277 0.36701 0.38749 0.39745 0.36701 0.39468
269.26247 0.36541 0.39563 0.40662 0.36761 0.40497
269.27220 0.36782 0.39806 0.40026 0.37772 0.40795
269.28193 0.38010 0.40323 0.41645 0.38836 0.42196
269.29162 0.37671 0.40811 0.42408 0.38828 0.41306
269.30135 0.38431 0.40919 0.43739 0.38154 0.42080
269.31105 0.39134 0.41302 0.43470 0.38967 0.42525
269.32078 0.39460 0.41571 0.44128 0.40682 0.43906
269.33047 0.39741 0.42014 0.42901 0.39852 0.44453
269.34021 0.40587 0.43034 0.43590 0.40587 0.44757
269.34990 0.40998 0.43735 0.45466 0.42115 0.45522
269.35963 0.41857 0.45458 0.46527 0.43377 0.46415
269.36932 0.41858 0.45290 0.46641 0.41971 0.46078
269.37906 0.41459 0.46053 0.47006 0.43812 0.47678
269.38875 0.43831 0.46511 0.47851 0.44613 0.48186
269.39848 0.43471 0.47513 0.48953 0.44080 0.48898
269.40818 0.44770 0.48256 0.49142 0.45047 0.49640
269.41791 0.44530 0.47930 0.50382 0.45645 0.48989
269.42760 0.46063 0.49082 0.51989 0.47796 0.50647
269.43733 0.46098 0.50825 0.51826 0.48100 0.52048
269.44703 0.47776 0.50824 0.52709 0.48441 0.52155
269.45676 0.47585 0.50805 0.52915 0.47807 0.51527
269.46645 0.47708 0.51151 0.53428 0.49041 0.53484
269.47619 0.47613 0.52037 0.53640 0.49272 0.54857
269.48588 0.49822 0.53693 0.55020 0.50873 0.55684
269.49561 0.50716 0.53543 0.56037 0.50882 0.56370
269.50530 0.51191 0.53865 0.56428 0.52473 0.57486
269.51501 0.53407 0.56200 0.58379 0.52736 0.58099
269.52473 0.53181 0.56972 0.59815 0.54575 0.57975
269.53443 0.52935 0.56728 0.60353 0.53827 0.59684
269.54416 0.54736 0.58710 0.61676 0.56024 0.61508
269.55385 0.54633 0.58535 0.61657 0.57142 0.61323
269.56355 0.55901 0.59902 0.62291 0.56957 0.60458
269.57327 0.55135 0.58789 0.61280 0.56796 0.61224
269.58298 0.58270 0.62143 0.65740 0.60096 0.63305
269.59270 0.57859 0.62492 0.65140 0.59845 0.64313
269.60240 0.58377 0.62897 0.65212 0.60361 0.65929
269.61210 0.58949 0.63203 0.66242 0.61269 0.65689
269.62183 0.60561 0.64717 0.68319 0.62279 0.67266
269.63152 0.62480 0.65495 0.68790 0.63764 0.69236
269.64125 0.62617 0.67275 0.68453 0.63291 0.68621
269.65095 0.63427 0.66866 0.70249 0.65006 0.69685
269.66065 0.64765 0.69169 0.71710 0.66459 0.70806
269.67037 0.66074 0.70102 0.73459 0.66689 0.71165
269.68008 0.65120 0.69616 0.74113 0.68006 0.72559
269.68977 0.66101 0.72378 0.75933 0.68712 0.73933
269.69950 0.68446 0.72643 0.76673 0.70460 0.75273
269.70920 0.68946 0.73734 0.77395 0.71255 0.76437
269.71890 0.70452 0.74673 0.79399 0.70959 0.77486
269.72862 0.72825 0.76196 0.79624 0.74005 0.79456
269.73832 0.71729 0.76877 0.81073 0.74135 0.79394
269.74802 0.73323 0.78045 0.81766 0.75045 0.79989
269.75775 0.73377 0.79072 0.82666 0.75920 0.81892
269.76744 0.75056 0.80421 0.84625 0.76881 0.82855
269.77714 0.75968 0.81902 0.84120 0.78519 0.83843
269.78684 0.78434 0.82097 0.87648 0.79100 0.84429
269.79656 0.78181 0.82211 0.89002 0.81107 0.85524
269.80626 0.79052 0.84789 0.89423 0.81920 0.87326
269.81596 0.80373 0.86832 0.90420 0.83464 0.87881
269.82569 0.81376 0.87822 0.92175 0.83745 0.89861
269.83538 0.83843 0.89576 0.93434 0.84118 0.90788
269.84509 0.84778 0.89573 0.94975 0.85604 0.91888
269.85478 0.85182 0.91326 0.96639 0.87839 0.92322
269.86451 0.87626 0.90908 0.97584 0.87570 0.93133
269.87420 0.89217 0.95075 1.00655 0.89831 0.97307
269.88391 0.89810 0.95563 1.01148 0.91709 0.95674
269.89360 0.91489 0.98084 1.03058 0.93893 0.98922
269.90333 0.92749 0.97186 1.04176 0.93248 0.98351
269.91303 0.93686 0.99424 1.05824 0.96555 1.00527
269.92273 0.95623 1.00838 1.06712 0.98148 1.02430
269.93242 0.95159 1.01529 1.07679 0.97740 1.02078
269.94211 0.97427 1.03171 1.09743 0.99802 1.03999
269.95185 0.98757 1.04726 1.11689 1.00526 1.06273
269.96154 0.99562 1.05658 1.13017 1.02088 1.08129
269.97124 1.00510 1.07826 1.15360 1.03295 1.08591
269.98094 1.03315 1.10667 1.17366 1.04840 1.11429
269.99064 1.03817 1.10645 1.17688 1.05930 1.11349
270.00036 1.05773 1.11944 1.20875 1.08263 1.13189
270.01006 1.07771 1.14442 1.22578 1.09832 1.15364
270.01976 1.08948 1.17345 1.23179 1.10692 1.18163
270.02946 1.10127 1.17702 1.25984 1.11816 1.18410
270.03915 1.10317 1.19479 1.27331 1.13807 1.19806
270.04886 1.14212 1.21688 1.29382 1.15139 1.23161
270.05858 1.15850 1.22633 1.30989 1.15416 1.23935
270.06828 1.16487 1.23412 1.32826 1.20058 1.25522
270.07798 1.17641 1.24622 1.35174 1.20076 1.26678
270.08768 1.19922 1.27414 1.36914 1.21659 1.27414
270.09737 1.23046 1.28973 1.38162 1.23698 1.29408
270.10706 1.23363 1.32798 1.42179 1.24890 1.31162
270.11677 1.26235 1.34316 1.43762 1.26072 1.33825
270.12646 1.27709 1.36052 1.45485 1.27872 1.36161
270.13619 1.28865 1.36831 1.46869 1.29356 1.37376
270.14589 1.31109 1.40318 1.50508 1.32852 1.40045
270.15559 1.31812 1.40713 1.51961 1.34324 1.41696
270.16528 1.35333 1.44151 1.53024 1.35333 1.43275
270.17498 1.36133 1.44212 1.57238 1.36133 1.45806
270.18468 1.37635 1.47132 1.59924 1.40380 1.50316
270.19438 1.40223 1.48735 1.59102 1.40824 1.50263
270.20407 1.41960 1.50256 1.63464 1.43106 1.52930
270.21378 1.44906 1.54381 1.67342 1.45396 1.54654
270.22347 1.46015 1.56979 1.67564 1.46015 1.57197
270.23316 1.48534 1.56085 1.70808 1.49620 1.58476
270.24286 1.50272 1.58824 1.73366 1.50272 1.61601
270.25256 1.52650 1.62334 1.74535 1.54291 1.64249
270.26226 1.55603 1.64591 1.78431 1.54831 1.66631
270.27198 1.56063 1.67004 1.81444 1.59450 1.70447
270.28169 1.58929 1.69834 1.83311 1.59768 1.72294
270.29138 1.61563 1.71997 1.85460 1.62629 1.74970
270.30108 1.62023 1.75821 1.89731 1.64389 1.79369
270.31077 1.67821 1.77666 1.91302 1.66576 1.80948
270.32048 1.67800 1.78429 1.95937 1.69676 1.83943
270.33017 1.72259 1.81062 1.97192 1.71180 1.88389
270.33987 1.72731 1.84927 2.00697 1.73695 1.88727
270.34957 1.75184 1.87770 2.04041 1.75978 1.92079
270.35926 1.79175 1.89494 2.07582 1.78494 1.96525
270.36896 1.80587 1.94107 2.10410 1.81269 1.98367
270.37866 1.83574 1.96480 2.13024 1.84370 2.02847
270.38836 1.86622 1.99522 2.15376 1.85769 2.05829
270.39805 1.90056 2.02285 2.21081 1.88358 2.09758
270.40772 1.93563 2.05018 2.23043 1.91260 2.12599
270.41742 1.95098 2.08008 2.26371 1.94318 2.16188
270.42712 1.96760 2.10558 2.28551 1.96871 2.21100
270.43681 1.99183 2.13573 2.34853 2.02072 2.23463
270.44652 2.04485 2.15786 2.37325 2.02471 2.28094
270.45621 2.08901 2.22076 2.41615 2.07114 2.31622
270.46590 2.09237 2.25143 2.45570 2.09739 2.34966
270.47560 2.10786 2.27297 2.47879 2.13520 2.41018
270.48530 2.17497 2.31279 2.51477 2.18501 2.46009
270.49500 2.19648 2.35118 2.57378 2.20427 2.47305
270.50469 2.23354 2.38270 2.60144 2.24968 2.53576
270.51440 2.27021 2.41392 2.64485 2.26518 2.57216
270.52409 2.31307 2.45211 2.69248 2.33108 2.64407
270.53379 2.35020 2.49164 2.73775 2.33719 2.68117
270.54345 2.38486 2.53812 2.79770 2.40352 2.73210
270.55316 2.42017 2.55792 2.82100 2.42695 2.75946
270.56285 2.45293 2.59127 2.88706 2.45799 2.81227
270.57254 2.50891 2.64383 2.91256 2.49218 2.86015
270.58225 2.52985 2.67872 2.99475 2.54423 2.90619
270.59194 2.60009 2.73992 3.02239 2.60510 2.98450
270.60164 2.62443 2.79129 3.07238 2.64515 3.02423
270.61134 2.66124 2.84387 3.12535 2.67799 3.08681
270.62101 2.71218 2.89500 3.17536 2.71942 3.14972
270.63070 2.76200 2.93281 3.24774 2.76033 3.22437
270.64040 2.79775 2.97665 3.29098 2.81503 3.28931
270.65010 2.85357 3.03735 3.33682 2.87350 3.34623
270.65980 2.89418 3.07489 3.40611 2.90297 3.41875
270.66949 2.93672 3.14488 3.48684 2.95324 3.46041
270.67916 2.97964 3.18075 3.52551 3.00616 3.52385
270.68886 3.06344 3.24608 3.59811 3.08882 3.59977
270.69855 3.13173 3.29274 3.64188 3.12343 3.66346
270.70825 3.16076 3.34604 3.70276 3.17403 3.73816
270.71795 3.22161 3.41132 3.79902 3.23987 3.83054
270.72762 3.27915 3.47321 3.87958 3.31288 3.89672
270.73731 3.34407 3.51789 3.93860 3.37064 3.96960
270.74702 3.39248 3.58710 3.98301 3.42362 4.06530
270.75671 3.46398 3.66128 4.10494 3.48293 4.13336
270.76640 3.52588 3.72906 4.14990 3.54926 4.22727
270.77607 3.60023 3.80949 4.24525 3.60969 4.30425
270.78577 3.64359 3.83859 4.31890 3.67184 4.37430
270.79547 3.69859 3.93224 4.38186 3.75327 4.45698
270.80516 3.77304 3.98877 4.44279 3.82257 4.55286
270.81484 3.87004 4.06955 4.57218 3.90366 4.63942
270.82453 3.94121 4.15149 4.62132 3.97109 4.74030
270.83423 4.00496 4.20640 4.72715 4.03429 4.85387
270.84393 4.09150 4.31403 4.80316 4.13612 4.93701
270.85359 4.14825 4.41063 4.90252 4.21398 5.01263
270.86329 4.27863 4.47483 5.00096 4.28466 5.16702
270.87298 4.32981 4.55281 5.11631 4.34512 5.24201
270.88269 4.41509 4.62448 5.19786 4.44167 5.35463
270.89235 4.49402 4.73654 5.27399 4.53615 5.43225
270.90205 4.57181 4.80235 5.41458 4.63336 5.55172
270.91175 4.66559 4.87596 5.53738 4.71859 5.60985
270.92142 4.75500 4.99973 5.62762 4.81986 5.73500
270.93111 4.86558 5.09578 5.72282 4.90614 5.91082
270.94080 4.96315 5.17538 5.84006 5.01031 5.98045
270.95048 5.05954 5.28727 5.97159 5.12140 6.13254
270.96017 5.14958 5.39666 6.09337 5.20605 6.24162
270.96987 5.26191 5.47316 6.19853 5.32658 6.35320
270.97954 5.35430 5.59273 6.32357 5.40478 6.48466
270.98924 5.46047 5.68860 6.43133 5.50439 6.57431
270.99893 5.58877 5.79534 6.59060 5.61178 6.76132
271.00861 5.66336 5.93384 6.68248 5.75084 6.82684
271.01830 5.80310 6.06673 6.84846 5.85432 6.99186
271.02799 5.91045 6.14500 6.94278 5.99652 7.10847
271.03766 6.01639 6.27823 7.10192 6.12392 7.23687
271.04736 6.14875 6.40452 7.23202 6.20946 7.38677
271.05703 6.29746 6.52976 7.38906 6.34639 7.53533
271.06672 6.39212 6.64244 7.53230 6.48740 7.64427
271.07643 6.53124 6.79755 7.69285 6.60052 7.79948
271.08609 6.67355 6.90816 7.82599 6.74632 7.93244
271.09579 6.78803 7.03279 7.97431 6.84949 8.08418
271.10548 6.93334 7.19951 8.16085 7.01286 8.22468
271.11515 7.06050 7.33188 8.30443 7.17291 8.41416
271.12485 7.19932 7.47406 8.41961 7.26507 8.53400
271.13451 7.34328 7.59988 8.65037 7.43435 8.67394
271.14422 7.51384 7.78131 8.81136 7.56066 8.83073
271.15388 7.62045 7.87610 8.97044 7.71645 8.96127
271.16358 7.80843 8.05598 9.11361 7.88124 9.15837
271.17327 7.93936 8.21859 9.30021 8.04046 9.32482
271.18294 8.11240 8.35962 9.50727 8.19232 9.48009
271.19264 8.24043 8.54271 9.67718 8.36854 9.65230
271.20230 8.41411 8.69927 9.84097 8.49054 9.80987
271.21201 8.60182 8.86495 10.03958 8.65181 9.98958
271.22167 8.76511 9.04939 10.21919 8.81943 10.15907
271.23137 8.90515 9.21046 10.41589 8.96948 10.31886
271.24104 9.09379 9.36110 10.60995 9.17567 10.47841
271.25073 9.25907 9.56307 10.81650 9.37307 10.66081
271.26040 9.42837 9.73039 11.04528 9.52308 10.82324
271.27009 9.61465 9.88153 11.18285 9.65773 10.98164
271.27977 9.76608 10.12900 11.42370 9.87827 11.21564
271.28946 9.95442 10.29270 11.60366 10.06191 11.37445
271.29913 10.18363 10.50673 11.80966 10.22738 11.59145
271.30883 10.35301 10.68540 12.03599 10.40613 11.75146
271.31850 10.52363 10.87745 12.27695 10.60577 11.90575
271.32819 10.71720 11.07659 12.50728 10.76377 12.11348
271.33785 10.92405 11.25756 12.71858 11.02917 12.30770
271.34756 11.16457 11.50670 12.95111 11.20252 12.51918
271.35722 11.31617 11.71483 13.18351 11.36348 12.71893
271.36692 11.54951 11.88397 13.37895 11.57181 12.85550
271.37659 11.71373 12.10974 13.60284 11.75127 13.08258
271.38629 11.90922 12.33748 13.81284 11.97010 13.27658
271.39595 12.15715 12.52611 14.09207 12.18418 13.49728
271.40562 12.35226 12.78286 14.28337 12.37128 13.70483
271.41532 12.58605 13.02113 14.57968 12.61337 13.98695
271.42498 12.79349 13.17889 14.76965 12.82016 14.17560
271.43468 13.03820 13.45156 15.06292 13.01506 14.35401
271.44435 13.16210 13.60991 15.24666 13.18881 14.53383
271.45405 13.44163 13.86057 15.51485 13.41021 14.75762
271.46371 13.67339 14.11305 15.75824 13.67600 15.00021
271.47338 13.89238 14.31134 15.99559 13.85472 15.18380
271.48308 14.14102 14.56291 16.29494 14.13893 15.43599
271.49274 14.33758 14.80542 16.53377 14.31400 15.62218
271.50244 14.54084 14.99045 16.71246 14.52671 15.86140
271.51211 14.80465 15.26293 16.99493 14.75566 16.12050
271.52178 15.01627 15.52983 17.24171 14.92988 16.31740
271.53147 15.19380 15.73987 17.51250 15.17792 16.65053
271.54114 15.49460 15.96999 17.78426 15.42163 16.79807
271.55081 15.71352 16.24184 18.01526 15.68758 17.06926
271.56050 15.91943 16.48987 18.25375 15.90457 17.23013
271.57018 16.20324 16.68977 18.55304 16.08107 17.57042
271.57984 16.42484 16.95164 18.75040 16.33749 17.71386
271.58954 16.64251 17.24413 19.00726 16.61631 18.00991
271.59920 16.91400 17.50137 19.30482 16.83293 18.21491
271.60887 17.15879 17.71553 19.55268 17.05572 18.49613
271.61857 17.36535 17.97362 19.81934 17.27378 18.77841
271.62823 17.64797 18.19004 20.12126 17.54577 19.05853
271.63791 17.94601 18.47592 20.43120 17.79935 19.34196
271.64760 18.11539 18.71377 20.52392 18.01896 19.53501
271.65726 18.40873 19.00417 20.89724 18.29018 19.78682
271.66693 18.61820 19.26589 21.14889 18.51526 20.07335
271.67663 18.91748 19.49980 21.44968 18.78024 20.30010
271.68630 19.12830 19.72912 21.67950 18.96855 20.54563
271.69596 19.36265 20.02595 21.92539 19.31904 20.83784
271.70564 19.58734 20.29953 22.20498 19.42519 21.06290
271.71533 19.87378 20.55498 22.45587 19.74238 21.45534
271.72499 20.14398 20.71903 22.74137 20.01953 21.64437
271.73467 20.40166 21.04998 23.01479 20.24441 21.96718
271.74433 20.64785 21.34546 23.27437 20.53014 22.25160
271.75403 20.87674 21.58440 23.50988 20.78687 22.52400
271.76369 21.15718 21.84074 23.76349 20.97572 22.80854
271.77337 21.43385 22.07279 24.00236 21.23276 23.05274
271.78303 21.63746 22.36100 24.31067 21.52939 23.30016
271.79272 21.92537 22.60566 24.61088 21.73746 23.54306
271.80240 22.15886 22.87479 24.77544 21.96539 23.85594
271.81206 22.43282 23.05679 25.04835 22.30354 24.15888
271.82173 22.72155 23.42669 25.35833 22.45900 24.48387
271.83139 23.01023 23.65969 25.66004 22.80392 24.81714
271.84109 23.27315 23.84228 25.89606 23.10636 25.12390
271.85076 23.46141 24.17072 26.17365 23.26049 25.44641
271.86042 23.79213 24.44992 26.49877 23.61707 25.78961
271.87010 24.02257 24.75463 26.74013 23.82450 26.03795
271.87976 24.26748 24.99322 26.97216 24.06975 26.27512
271.88946 24.54640 25.28451 27.28150 24.38197 26.65906
271.89913 24.85882 25.54650 27.60180 24.66301 26.91928
271.90879 25.11432 25.76508 27.78255 24.89861 27.12920
271.91846 25.36566 25.99964 28.03759 25.18394 27.47735
271.92812 25.68986 26.26055 28.29406 25.42763 27.74310
271.93780 25.88983 26.51822 28.57388 25.64450 28.05308
271.94749 26.17935 26.81428 28.86985 26.02022 28.43422
271.95715 26.46731 27.08212 29.07009 26.26394 28.75125
271.96683 26.72252 27.37934 29.38151 26.49786 29.00188
271.97649 26.97549 27.63712 29.65689 26.82546 29.34796
271.98616 27.26385 27.91697 29.88311 27.08582 29.64295
271.99582 27.54215 28.15022 30.11587 27.31614 29.93319
272.00550 27.79448 28.49283 30.46467 27.68684 30.29723
272.01516 28.07601 28.65960 30.67865 27.90439 30.56493
272.02485 28.35084 28.88319 30.96903 28.12876 30.81804
272.03453 28.63005 29.19002 31.20913 28.48409 31.14887
272.04419 28.87219 29.49563 31.49698 28.67200 31.49542
272.05386 29.17050 29.67887 31.69247 28.88337 31.69822
272.06353 29.52250 30.06315 32.09336 29.37749 32.17585
272.07319 29.79430 30.30137 32.31606 29.61656 32.41015
272.08286 29.89089 30.45976 32.38314 29.76488 32.59161
272.09252 30.34658 30.77272 32.82993 30.13300 33.04247
272.10220 30.51735 31.04759 33.10148 30.38635 33.28499
272.11186 30.83357 31.32088 33.38305 30.67458 33.59797
272.12152 31.14006 31.60042 33.59168 30.99387 33.98102
272.13120 31.31417 31.78628 33.78469 31.17046 34.15615
272.14086 31.73477 32.17797 34.18801 31.61980 34.51361
272.15053 31.89012 32.33988 34.31635 31.75863 34.73690
272.16019 32.23059 32.65050 34.62502 31.98885 35.03347
272.16986 32.51280 32.89018 34.93777 32.44580 35.40465
272.17953 32.72013 33.08376 35.20748 32.61235 35.62134
272.18919 33.01058 33.40071 35.46364 32.97454 35.97493
272.19887 33.26855 33.59747 35.65256 33.16931 36.20076
272.20853 33.59599 33.92836 35.90706 33.45206 36.53142
272.21820 33.79893 34.20693 36.17110 33.70041 36.72456
272.22787 34.07901 34.44799 36.36536 34.01580 37.02779
272.23753 34.39651 34.79887 36.65219 34.30236 37.38642
272.24720 34.64014 34.94259 36.97027 34.53312 37.53121
272.25686 34.89160 35.13336 37.13989 34.85773 37.80683
272.26654 35.13283 35.46320 37.41662 35.10979 38.01087
272.27620 35.44978 35.62148 37.67406 35.33513 38.35459
272.28586 35.64706 35.92747 37.81291 35.53406 38.50923
272.29554 35.93468 36.19833 38.10078 35.81199 38.84213
272.30520 36.18322 36.36170 38.41065 36.13029 39.08516
272.31487 36.45911 36.71225 38.64589 36.48236 39.35673
272.32454 36.73341 36.90062 38.84169 36.68823 39.56349
272.33420 36.86735 36.99648 38.95224 36.79809 39.64530
272.34387 37.16258 37.44146 39.36071 37.22746 40.02313
272.35353 37.40136 37.49543 39.47388 37.31044 40.17673
272.36321 37.69454 37.78318 39.71856 37.64032 40.43077
272.37287 37.89723 38.06623 39.98694 37.93974 40.66450
272.38253 38.19854 38.36137 40.26795 38.15526 40.89042
272.39221 38.39347 38.42829 40.33224 38.24292 41.01742
272.40184 38.59972 38.70188 40.61523 38.53092 41.18354
272.41151 38.80078 38.95623 40.77734 38.78843 41.48921
272.42117 38.99038 39.14789 41.03908 39.05737 41.69573
272.43084 39.34721 39.39508 41.29876 39.20512 41.84674
272.44051 39.42356 39.47087 41.30247 39.40270 41.88909
272.45017 39.64266 39.80226 41.61597 39.70844 42.15341
272.45985 39.99265 39.97785 41.87874 39.89722 42.36659
272.46951 40.07732 40.06360 41.96854 40.03261 42.47195
272.47914 40.27219 40.29821 42.19188 40.27219 42.59347
272.48882 40.62272 40.55348 42.37394 40.51911 42.86432
272.49848 40.76789 40.74529 42.61930 40.70984 42.99687
272.50815 40.96012 40.86631 42.72575 40.82837 43.14717
272.51781 41.13821 41.18540 42.93468 40.99816 43.39431
272.52748 41.29904 41.19761 43.06251 41.25167 43.41262
272.53712 41.42917 41.39895 43.14098 41.46093 43.57995
272.54678 41.68673 41.68928 43.44984 41.60935 43.72171
272.55646 41.78143 41.75617 43.53144 41.75263 43.82092
272.56612 42.08378 41.92897 43.74667 41.91577 43.98676
272.57578 42.15334 42.08871 43.86832 42.09991 44.10699
272.58543 42.34971 42.27095 44.02104 42.26892 44.34727
272.59509 42.38569 42.27407 44.11205 42.33922 44.25549
272.60476 42.61282 42.41343 44.25492 42.47956 44.44826
272.61442 42.78286 42.60317 44.39154 42.67213 44.50278
272.62409 43.01171 42.74661 44.53365 42.77768 44.66194
272.63373 42.96256 42.81677 44.60316 42.88867 44.65608
272.64339 43.10486 42.95919 44.72221 42.96069 44.70319
272.65307 43.28591 43.11844 44.90276 43.25573 44.92288
272.66273 43.37751 43.14531 44.94946 43.22792 44.90916
272.67236 43.51556 43.25701 45.02798 43.36457 45.00626
272.68203 43.75749 43.49508 45.25814 43.57496 45.21971
272.69170 43.80434 43.52054 45.34239 43.62351 45.22385
272.70137 43.89214 43.59750 45.41252 43.72349 45.30611
272.71100 43.97303 43.71630 45.44024 43.81516 45.33937
272.72067 44.00386 43.69029 45.51055 43.82583 45.32544
272.73034 44.09837 43.80583 45.58271 43.92919 45.42260
272.74000 44.27702 43.90738 45.77878 44.07407 45.55971
272.74964 44.32255 43.91505 45.83664 44.08919 45.57417
272.75931 44.49796 44.12666 45.93632 44.23094 45.69500
272.76897 44.39116 44.09614 45.88994 44.15262 45.69881
272.77861 44.53017 44.11621 45.97298 44.29398 45.67585
272.78828 44.64995 44.17176 45.99656 44.35677 45.72916
272.79794 44.64043 44.18866 46.05928 44.28674 45.72947
272.80758 44.73843 44.32354 46.17494 44.46678 45.83576
272.81725 44.74706 44.32605 46.19989 44.48975 45.85663
272.82692 44.71331 44.26390 46.17517 44.45854 45.80423
272.83655 44.93035 44.28249 46.24948 44.58937 45.93039
272.84622 44.87056 44.52035 46.33018 44.62273 45.95514
272.85589 44.84190 44.40626 46.23726 44.54243 45.86694
272.86552 44.90125 44.49566 46.33841 44.63354 45.95345
272.87519 45.02892 44.59825 46.39606 44.73744 46.06575
272.88486 44.89416 44.36735 46.28182 44.60098 45.90690
272.89449 45.06288 44.50598 46.44445 44.78037 46.18938
272.90416 44.97174 44.45731 46.44698 44.65181 45.93864
272.91380 45.06046 44.43673 46.44726 44.72767 46.03688
272.92347 45.10342 44.55465 46.42610 44.71928 46.02760
272.93313 44.91009 44.43260 46.30309 44.57554 45.92807
272.94277 45.15501 44.51132 46.51988 44.73036 46.01567
272.95244 45.07010 44.44571 46.37824 44.58245 45.92981
272.96210 45.05458 44.51497 46.47123 44.74491 46.10035
272.97173 45.04815 44.49575 46.57120 44.78398 46.12325
272.98141 45.12943 44.48446 46.46189 44.68681 46.05821
272.99104 45.07504 44.41855 46.39831 44.72364 45.96562
273.00071 45.07124 44.46375 46.37441 44.65250 45.91853
273.01035 45.07995 44.36668 46.35886 44.65261 46.01049
273.02001 45.00183 44.34809 46.31137 44.58835 45.89015
273.02968 45.13253 44.40757 46.36257 44.61154 46.08666
273.03931 45.08858 44.35508 46.39717 44.66733 46.03755
273.04899 45.08672 44.36145 46.31227 44.64381 46.02790
273.05862 45.05282 44.37009 46.40876 44.70870 46.02550
273.06828 44.90436 44.17784 46.29097 44.55770 45.85778
273.07793 44.94134 44.31410 46.24957 44.54812 45.92666
273.08759 45.03868 44.35365 46.28764 44.59284 45.91485
273.09722 45.02977 44.23614 46.33811 44.56724 46.08176
273.10690 44.86993 44.11270 46.17437 44.42876 45.80555
273.11653 44.93141 44.09803 46.25282 44.60169 45.84697
273.12620 44.84956 44.06230 46.12831 44.38324 45.77467
273.13583 44.91390 44.09801 46.16319 44.47043 45.93540
273.14550 44.88877 44.09172 46.15170 44.49075 45.77546
273.15514 44.61599 43.89813 45.95063 44.26036 45.66917
273.16480 44.72725 43.96255 45.99681 44.32346 45.73851
273.17444 44.62311 43.80460 45.95555 44.21869 45.59850
273.18411 44.67719 43.88646 45.93992 44.27902 45.65377
273.19374 44.64440 43.91052 45.87629 44.22872 45.64698
273.20342 44.68229 43.81237 45.90430 44.26642 45.65066
273.21305 44.67775 43.81230 45.87745 44.17862 45.57627
273.22271 44.52700 43.73728 45.84906 44.19573 45.57560
273.23235 44.44121 43.64655 45.76563 43.99688 45.36956
273.24199 44.45940 43.74112 45.71113 44.04400 45.46048
273.25166 44.52921 43.71632 45.73855 44.09127 45.46559
273.26129 44.33855 43.53105 45.62231 43.96063 45.37500
273.27096 44.52714 43.67859 45.73417 44.07432 45.51620
273.28060 44.36852 43.58368 45.56995 43.94898 45.36437
273.29023 44.47180 43.55335 45.57887 43.96111 45.39321
273.29990 44.24794 43.52819 45.41401 43.81047 45.22386
273.30954 44.31435 43.50695 45.52817 43.85806 45.28323
273.31920 44.17620 43.42415 45.42271 43.74280 45.17843
273.32884 44.14918 43.43107 45.26414 43.74688 45.11538
273.33848 44.13464 43.38015 45.29311 43.70492 45.09656
273.34814 44.17167 43.29285 45.25178 43.66327 45.06187
273.35778 44.01798 43.30163 45.15909 43.57342 45.05661
273.36745 44.08859 43.41060 45.27420 43.77220 45.14059
273.37708 43.84861 43.04247 45.06348 43.47393 44.84035
273.38672 44.05740 43.34541 45.23891 43.68674 45.06700
273.39639 43.85606 43.22453 45.04433 43.56184 44.87741
273.40603 43.89377 43.07230 45.02161 43.48874 44.87041
273.41566 43.93230 43.24653 45.03212 43.63122 44.85745
273.42532 43.72708 42.95081 44.83043 43.32852 44.76590
273.43497 43.84617 43.12412 44.97555 43.53096 44.92725
273.44460 43.63044 42.99577 44.84059 43.33798 44.62721
273.45426 43.75069 42.96696 44.70302 43.29622 44.67110
273.46391 43.77980 43.12155 44.87140 43.46342 44.77443
273.47354 43.58229 42.98847 44.65166 43.25283 44.58159
273.48321 43.65602 43.08412 44.72996 43.35570 44.67544
273.49284 43.54347 42.94060 44.62107 43.20276 44.57345
273.50248 43.70344 43.00072 44.72023 43.28583 44.71974
273.51215 43.61697 42.95487 44.64968 43.27371 44.61550
273.52178 43.38578 42.74216 44.37185 43.07976 44.34368
273.53142 43.60354 43.02686 44.56532 43.21697 44.58193
273.54106 43.32860 42.78678 44.39075 43.08942 44.37415
273.55072 43.31330 42.81225 44.35462 42.98972 44.36687
273.56036 43.47986 42.85252 44.36156 43.11963 44.38362
273.57000 43.33299 42.78240 44.27330 43.00440 44.35741
273.57963 43.27479 42.68333 44.23952 42.95485 44.23316
273.58930 43.36551 42.84136 44.29841 43.04720 44.36540
273.59894 43.28375 42.73782 44.25266 42.98029 44.28583
273.60857 43.36829 42.76714 44.25140 42.96001 44.30036
273.61821 43.18707 42.62984 44.15745 42.79052 44.17894
273.62788 43.22991 42.70706 44.15888 42.92581 44.22951
273.63751 43.15840 42.72025 44.03225 42.84095 44.22360
273.64715 43.09153 42.61398 44.02105 42.83185 44.18089
273.65679 43.18691 42.72790 44.03047 42.79544 44.10344
273.66642 43.05420 42.55721 43.80877 42.73221 44.02261
273.67609 43.07043 42.66553 43.84525 42.70346 44.05903
273.68572 42.89033 42.46749 43.72225 42.60254 43.95258
273.69537 43.06773 42.66655 43.88251 42.84778 44.27971
273.70500 43.00892 42.54220 43.79144 42.67619 44.07535
273.71463 42.83463 42.41573 43.63003 42.57033 43.92775
273.72431 43.01979 42.64880 43.82485 42.73741 44.15428
273.73394 42.83224 42.52328 43.82251 42.69757 44.07205
273.74357 42.94830 42.54801 43.77745 42.68685 44.06352
273.75322 42.88455 42.47425 43.62350 42.66858 43.98953
273.76285 42.74669 42.39282 43.61339 42.49322 43.82256
273.77249 42.78791 42.53642 43.60275 42.60771 44.05721
273.78212 42.77567 42.43487 43.51489 42.55261 43.89742
273.79179 42.69853 42.38221 43.45095 42.44359 43.86181
273.80143 42.90897 42.60342 43.56353 42.64340 44.05223
273.81106 42.72236 42.42222 43.54736 42.51966 43.97969
273.82070 42.67688 42.35270 43.42700 42.45495 43.89607
273.83034 42.74756 42.47491 43.45024 42.52673 43.95097
273.83997 42.61116 42.34186 43.35174 42.43050 43.83948
273.84961 42.79384 42.47411 43.51200 42.55575 43.94931
273.85925 42.69232 42.33813 43.38912 42.42692 43.77515
273.86888 42.67200 42.45124 43.35898 42.53499 43.90072
273.87855 42.63450 42.37773 43.33759 42.41448 43.87047
273.88819 42.67659 42.38741 43.39930 42.41010 43.94628
273.89782 42.61982 42.46577 43.37127 42.41715 43.87480
273.90746 42.53444 42.35875 43.26463 42.44202 43.89037
273.91710 42.69056 42.45260 43.26681 42.46036 43.96809
273.92673 42.42665 42.21557 43.16061 42.19051 43.74855
273.93637 42.65304 42.35722 43.25145 42.39111 43.85179
273.94601 42.63610 42.40445 43.24802 42.47195 43.91822
273.95564 42.54868 42.23994 43.13213 42.33135 43.88331
273.96528 42.43741 42.22521 43.09450 42.25107 43.77354
273.97491 42.51704 42.34737 43.20943 42.41308 43.92390
273.98455 42.53952 42.34738 43.18065 42.30424 43.87128
273.99419 42.56788 42.37114 43.28028 42.49772 43.94852
274.00382 42.41556 42.19769 43.09938 42.21377 43.76078
274.01346 42.46338 42.28553 43.15859 42.35412 43.87732
274.02310 42.58378 42.30775 43.14812 42.34360 43.84360
274.03273 42.47027 42.26165 43.08097 42.32761 43.91300
274.04238 42.51326 42.24203 43.11142 42.34858 43.83164
274.05201 42.44856 42.23570 43.12391 42.29134 43.86456
274.06164 42.31578 42.12201 43.02786 42.17142 43.72299
274.07128 42.61184 42.31786 43.23240 42.46290 43.94204
274.08092 42.46803 42.21306 43.05700 42.33667 43.83841
274.09055 42.43575 42.17725 43.00999 42.23787 43.79423
274.10019 42.50980 42.22579 43.09244 42.26282 43.74327
274.10983 42.50457 42.25752 43.10607 42.36053 43.90044
274.11946 42.53362 42.23065 43.09967 42.30749 43.82182
274.12910 42.44697 42.20786 43.05640 42.34977 43.75331
274.13874 42.39724 42.13055 43.03973 42.20885 43.69201
274.14837 42.49803 42.27837 43.10776 42.32565 43.82092
274.15801 42.42455 42.28709 43.00239 42.33619 43.78888
274.16764 42.59280 42.37091 43.10305 42.39584 43.87381
274.17729 42.44104 42.25872 43.05186 42.36645 43.81575
274.18689 42.38035 42.10749 43.01154 42.19877 43.62476
274.19652 42.53012 42.27684 43.07021 42.38865 43.71871
274.20617 42.40365 42.17370 42.98729 42.26090 43.58944
274.21580 42.53148 42.22876 43.10840 42.39634 43.67156
274.22543 42.42008 42.14553 42.99185 42.25446 43.53454
274.23508 42.54157 42.30227 43.18134 42.47136 43.75584
274.24471 42.55052 42.31663 43.13844 42.46140 43.68402
274.25434 42.37421 42.16377 42.94056 42.31757 43.52742
274.26398 42.54134 42.19735 43.11385 42.35522 43.62350
274.27359 42.44954 42.14066 43.02844 42.33590 43.56023
274.28322 42.49421 42.30951 43.16431 42.38749 43.59317
274.29286 42.42669 42.21146 43.05427 42.33179 43.49353
274.30250 42.44122 42.14663 43.15951 42.31946 43.50516
274.31213 42.42248 42.01901 42.93661 42.28146 43.34987
274.32177 42.60662 42.29485 43.19365 42.47490 43.57842
274.33141 42.46039 42.13717 43.07892 42.35020 43.42565
274.34101 42.50929 42.22664 43.12389 42.36869 43.40703
274.35065 42.45613 42.09240 43.14950 42.29885 43.31165
274.36028 42.44800 42.11485 43.00829 42.26433 43.26768
274.36992 42.57850 42.26102 43.21149 42.41166 43.32779
274.37956 42.35461 42.00342 42.94171 42.13281 43.06428
274.38916 42.59111 42.29170 43.16511 42.39151 43.29851
274.39881 42.45023 42.07827 43.02514 42.26570 43.06388
274.40844 42.59244 42.24183 43.13314 42.43047 43.16514
274.41807 42.55298 42.19811 43.19598 42.40359 43.18535
274.42772 42.56086 42.16317 43.13202 42.38497 43.08274
274.43732 42.43195 42.13543 43.06472 42.25365 42.97412
274.44695 42.28621 42.05423 42.96225 42.27213 42.84529
274.45659 42.50055 42.22725 43.16434 42.30262 42.98685
274.46623 42.63486 42.30814 43.26113 42.46495 43.05529
274.47583 42.46835 42.08058 43.08435 42.28335 42.82200
274.48547 42.37527 42.15965 43.13643 42.35174 42.85790
274.49511 42.43221 42.09765 43.09941 42.27983 42.76148
274.50474 42.50266 42.14218 43.07848 42.29258 42.79630
274.51435 42.42443 42.21866 43.19522 42.29992 42.66156
274.52399 42.45049 42.06949 43.04819 42.23190 42.65099
274.53362 42.30096 42.04586 42.93323 42.11119 42.50361
274.54326 42.38394 42.04334 43.01833 42.24541 42.51388
274.55287 42.23141 41.88500 42.85334 42.04393 42.30422
274.56250 42.14179 41.88849 42.86164 42.01776 42.31639
274.57214 42.44866 42.13987 43.10515 42.24840 42.40544
274.58174 42.24849 41.93765 42.90019 42.03586 42.30045
274.59138 42.32008 42.05631 42.97686 42.09065 42.26809
274.60102 42.27038 41.98401 42.94033 42.07787 42.15497
274.61062 42.19050 41.92895 42.82123 41.96996 42.15334
274.62026 41.96855 41.68762 42.71947 41.83220 41.91391
274.62990 42.30134 41.97709 42.94888 42.05547 42.16502
274.63950 42.10116 41.82416 42.70718 41.84487 41.97687
274.64914 42.08125 41.85196 42.70642 41.89696 41.97259
274.65878 42.22798 41.90281 42.90558 41.95063 42.01136
274.66838 42.06922 41.63285 42.69580 41.75951 41.73800
274.67801 42.05915 41.80723 42.81200 41.81109 41.84770
274.68766 41.98609 41.77245 42.73048 41.82131 41.74658
274.69726 42.02078 41.75502 42.74508 41.78174 41.76122
274.70689 41.99644 41.74110 42.65153 41.76023 41.66029
274.71651 41.80592 41.61728 42.50128 41.61155 41.52654
274.72614 42.05880 41.66499 42.68823 41.69893 41.61338
274.73577 41.81482 41.57023 42.56096 41.58165 41.54263
274.74539 41.84389 41.56377 42.57095 41.62687 41.53557
274.75502 41.70820 41.51818 42.48405 41.42794 41.35824
274.76462 41.84759 41.54662 42.61226 41.62246 41.57638
274.77426 41.60318 41.46914 42.38264 41.45817 41.34511
274.78390 41.77104 41.49760 42.43742 41.45553 41.39673
274.79350 41.57559 41.42541 42.29303 41.36132 41.34745
274.80314 41.75596 41.53792 42.53038 41.51539 41.41284
274.81275 41.54691 41.35200 42.27805 41.22412 41.20938
274.82238 41.56049 41.33544 42.23848 41.27835 41.24885
274.83199 41.48689 41.29888 42.26076 41.15645 41.16357
274.84163 41.53807 41.44272 42.40764 41.41793 41.37502
274.85126 41.32857 41.16406 42.06624 41.04270 41.05929
274.86087 41.34427 41.17507 42.06922 41.04352 41.07116
274.87050 41.31435 41.15180 42.14442 41.07870 41.09553
274.88011 41.18465 41.15809 41.99606 40.96779 40.96297
274.88975 41.36157 41.21911 42.17013 41.13792 41.18362
274.89935 41.24601 41.11233 41.98054 40.98691 41.06712
274.90899 41.18335 40.99948 41.96345 40.94272 40.99511
274.91860 41.28695 41.16714 42.06546 41.05752 41.16423
274.92823 41.11895 41.06928 42.02545 41.01866 41.07700
274.93784 41.01779 40.96242 41.83578 40.82136 40.96483
274.94748 40.95413 40.88798 41.79913 40.76726 41.00483
274.95708 41.11064 40.97329 41.87698 40.86991 41.02716
274.96671 41.07491 40.92924 41.87412 40.82679 41.09821
274.97633 40.92097 40.85453 41.74398 40.69934 40.95977
274.98596 41.05045 40.84680 41.77022 40.77956 41.03497
274.99556 40.95904 40.81664 41.80052 40.76629 41.11535
275.00518 40.81963 40.79209 41.68095 40.65582 40.96540
275.01481 40.95544 40.83917 41.76555 40.74053 41.10126
275.02441 40.84524 40.80357 41.72027 40.61678 41.07465
275.03406 40.68176 40.63772 41.63531 40.56256 40.97759
275.04366 40.88777 40.74097 41.66718 40.65681 41.16893
275.05329 40.89502 40.83008 41.85490 40.76036 41.22071
275.06291 40.63526 40.61441 41.56024 40.59877 41.14372
275.07251 40.81328 40.73937 41.69640 40.61051 41.21694
275.08214 40.74815 40.69458 41.66781 40.57180 41.25776
275.09175 40.65716 40.64199 41.53799 40.58321 41.21373
275.10139 40.71456 40.74232 41.64987 40.59920 41.28130
275.11099 40.63917 40.53001 41.55986 40.53719 41.25153
275.12060 40.66362 40.53341 41.54287 40.47095 41.31657
275.13024 40.84786 40.74607 41.69650 40.75427 41.47843
275.13984 40.39372 40.45682 41.41912 40.32153 41.20782
275.14948 40.76059 40.63687 41.65867 40.54706 41.50007
275.15909 40.77697 40.72596 41.71654 40.65888 41.56632
275.16869 40.71299 40.66977 41.71544 40.70547 41.60458
275.17833 40.78721 40.73076 41.70795 40.68041 41.67361
275.18793 40.61371 40.57325 41.59280 40.56572 41.60315
275.19754 40.72234 40.66709 41.66163 40.62600 41.67438
275.20718 40.78978 40.72639 41.76294 40.79215 41.90818
275.21678 40.59467 40.57400 41.58359 40.50541 41.67990
275.22639 40.65450 40.59495 41.65233 40.61230 41.83145
275.23602 40.76875 40.75052 41.79418 40.76501 41.98347
275.24563 40.61438 40.63059 41.58879 40.63661 41.88101
275.25524 40.89037 40.81791 41.88518 40.86559 42.14136
275.26487 40.73534 40.62966 41.72383 40.73581 42.10211
275.27448 40.61657 40.71930 41.67422 40.68241 42.07019
275.28408 40.75210 40.76429 41.79350 40.79524 42.22863
275.29372 40.76838 40.70194 41.84815 40.81282 42.23645
275.30333 40.97791 40.91658 41.97839 41.05141 42.41425
275.31293 40.88547 40.77218 41.89260 40.97137 42.40847
275.32254 40.99241 40.87642 42.09178 41.10235 42.52221
275.33218 40.87241 40.87802 41.92125 40.98776 42.42792
275.34178 40.95903 40.78567 41.89192 40.92577 42.50901
275.35139 41.19293 41.12264 42.21046 41.23538 42.84778
275.36100 41.09363 40.92077 42.17120 41.17302 42.70153
275.37063 41.02944 40.97378 42.15825 41.15715 42.83609
275.38024 41.10158 41.01219 42.18838 41.20643 42.83521
275.38985 41.33094 41.24797 42.47472 41.54876 43.13147
275.39945 41.16282 41.08751 42.28638 41.40711 42.98208
275.40908 41.26229 41.12222 42.36861 41.40897 43.14701
275.41869 41.19827 41.13225 42.36259 41.38266 43.08316
275.42830 41.54363 41.45629 42.62343 41.72022 43.39964
275.43790 41.41415 41.34021 42.54043 41.64717 43.33776
275.44751 41.60112 41.45175 42.67568 41.81275 43.50302
275.45715 41.61548 41.45259 42.63904 41.80684 43.50531
275.46675 41.61375 41.47692 42.70236 41.75847 43.55673
275.47636 41.75899 41.63341 42.81342 42.02458 43.72599
275.48597 41.77617 41.61127 42.92116 41.90055 43.75544
275.49557 41.77735 41.62610 42.82769 42.03284 43.79753
275.50520 41.83716 41.60296 42.97304 42.06340 43.80586
275.51482 41.93118 41.84205 43.08794 42.19290 44.01128
275.52442 41.89563 41.72157 43.07053 42.19219 43.96683
275.53402 41.97290 41.82636 43.13472 42.22601 43.98158
275.54364 42.24418 42.09351 43.39220 42.52353 44.31396
275.55324 42.26351 42.09153 43.42462 42.60027 44.23649
275.56284 42.15274 41.95590 43.24549 42.34911 44.14523
275.57249 42.39003 42.28179 43.55661 42.77296 44.52788
275.58209 42.49949 42.35604 43.62936 42.79833 44.53354
275.59169 42.79716 42.58171 43.86531 43.06444 44.74824
275.60129 42.33431 42.16923 43.54255 42.70148 44.45335
275.61091 42.66484 42.59616 43.91734 43.04712 44.81013
275.62051 42.69889 42.49608 43.82581 42.99258 44.80111
275.63011 42.83594 42.68562 43.98918 43.07435 44.89348
275.63973 42.95454 42.82411 44.12934 43.31715 45.03182
275.64933 43.00406 42.87628 44.18488 43.41676 45.01642
275.65896 43.12348 42.90420 44.32298 43.50536 45.23995
275.66858 43.37050 43.18815 44.52948 43.69838 45.37365
275.67818 43.19957 43.10308 44.34357 43.54843 45.27788
275.68778 43.28216 43.11822 44.39795 43.64226 45.34326
275.69740 43.46988 43.32442 44.63643 43.86980 45.52092
275.70700 43.55642 43.36980 44.75215 43.92778 45.67636
275.71660 43.57115 43.46507 44.77285 44.01079 45.58468
275.72620 43.81739 43.67496 44.92040 44.20218 45.78665
275.73582 43.84144 43.69955 44.98537 44.19034 45.83157
275.74542 43.81490 43.64075 44.98885 44.20962 45.76019
275.75502 43.96098 43.76585 45.18928 44.41627 45.89350
275.76464 43.84594 43.77041 45.09054 44.32633 45.95609
275.77424 44.07386 43.88712 45.24075 44.47436 46.04505
275.78384 44.12269 43.98608 45.32261 44.58581 46.05323
275.79346 44.09695 43.93240 45.36311 44.57828 46.10336
275.80306 44.51337 44.40857 45.67424 44.95336 46.43430
275.81266 44.59400 44.43740 45.67245 44.95146 46.47965
275.82226 44.64257 44.48434 45.83208 45.09691 46.50572
275.83188 44.62899 44.44588 45.75263 45.09278 46.46657
275.84148 44.72940 44.56617 45.94433 45.17200 46.56042
275.85108 44.65443 44.60217 45.91435 45.17987 46.61758
275.86070 44.98258 44.83589 46.09653 45.39379 46.75596
275.87030 45.08335 44.86687 46.20601 45.48810 46.82076
275.87990 45.05850 44.98509 46.29961 45.54026 46.90479
275.88952 45.05672 44.81858 46.21698 45.44893 46.81234
275.89912 45.31586 45.20539 46.51183 45.80064 47.15318
275.90872 45.28782 45.17316 46.46211 45.67773 47.05813
275.91833 45.29839 45.15596 46.47191 45.76616 47.11806
275.92794 45.45222 45.33203 46.67422 45.92338 47.22079
275.93754 45.56471 45.47297 46.78016 46.01429 47.37717
275.94711 45.59919 45.56760 46.87024 46.12711 47.34413
275.95673 45.67097 45.61354 46.86610 46.14683 47.33740
275.96633 45.67330 45.62091 46.90514 46.21177 47.42357
275.97593 45.91416 45.79561 47.09103 46.31423 47.61881
275.98555 45.80091 45.69092 47.01675 46.26917 47.65708
275.99515 45.94544 45.88661 47.16291 46.40365 47.64181
276.00475 46.14656 45.98430 47.28425 46.52763 47.82023
276.01436 46.17281 46.01931 47.34628 46.67226 47.84940
276.02397 46.30677 46.12771 47.38802 46.62403 47.92061
276.03354 46.36263 46.20880 47.53663 46.72648 48.03128
276.04315 46.43057 46.32439 47.60445 46.83171 48.05129
276.05276 46.48251 46.36758 47.68374 46.89855 48.21011
276.06236 46.49896 46.41309 47.65266 46.92785 48.17111
276.07196 46.61732 46.50846 47.81567 47.03653 48.19922
276.08158 46.67198 46.56282 47.83866 47.04460 48.35269
276.09118 46.78986 46.68451 47.94723 47.16614 48.43115
276.10075 46.75342 46.65835 47.98888 47.24614 48.50218
276.11036 46.88107 46.75305 48.01515 47.30465 48.53224
276.11997 46.93691 46.85451 48.11986 47.34662 48.71202
276.12957 46.98117 46.90556 48.15194 47.44114 48.71423
276.13918 47.06654 46.93755 48.21621 47.50831 48.81458
276.14876 47.08425 46.94470 48.22237 47.51195 48.84353
276.15836 47.14147 47.04686 48.28443 47.55171 48.89161
276.16796 47.25624 47.15449 48.38194 47.63954 48.99796
276.17757 47.29252 47.12963 48.39564 47.65718 49.01515
276.18718 47.36758 47.25616 48.54819 47.75959 49.14744
276.19675 47.40926 47.31834 48.57894 47.83385 49.23173
276.20636 47.46522 47.37299 48.61355 47.83460 49.23178
276.21597 47.58053 47.45671 48.67396 47.95426 49.30625
276.22557 47.63280 47.51263 48.79058 48.01294 49.43253
276.23515 47.56746 47.49296 48.76942 47.98583 49.43173
276.24476 47.66424 47.57410 48.81679 48.07420 49.47657
276.25436 47.73528 47.63724 48.89376 48.12190 49.51741
276.26397 47.85532 47.71444 48.97956 48.19547 49.63715
276.27354 47.76092 47.65557 48.94924 48.14414 49.68532
276.28315 47.83815 47.71422 49.05993 48.21823 49.73026
276.29275 47.93581 47.90304 49.21027 48.37924 49.83089
276.30236 47.98516 47.85326 49.15436 48.35238 49.86166
276.31194 48.05452 47.93255 49.18226 48.44398 49.97320
276.32154 48.03727 48.00807 49.24147 48.50866 50.04612
276.33115 48.09598 47.99397 49.30520 48.49658 50.10595
276.34072 48.26758 48.07363 49.45555 48.58210 50.20563
276.35033 48.35017 48.17863 49.52455 48.74055 50.23066
276.35994 48.31759 48.17239 49.53188 48.70281 50.32292
276.36951 48.39548 48.23670 49.53124 48.71900 50.38524
276.37912 48.47804 48.25412 49.57236 48.79601 50.39781
276.38873 48.58807 48.42373 49.66252 48.91258 50.45923
276.39830 48.48973 48.39252 49.70304 48.88969 50.53629
276.40790 48.59824 48.40107 49.77894 48.87150 50.58014
276.41751 48.63664 48.49492 49.80260 48.91870 50.64234
276.42709 48.72551 48.51735 49.91384 49.04534 50.73455
276.43669 48.86270 48.67326 50.00890 49.14297 50.81092
276.44630 48.87001 48.65870 50.00816 49.09129 50.88876
276.45588 48.90132 48.74437 50.11863 49.19561 50.86872
276.46548 48.96333 48.79783 50.11412 49.26660 50.95437
276.47505 48.94446 48.72828 50.13551 49.25356 51.02064
276.48467 49.00385 48.81894 50.22615 49.30206 51.01745
276.49427 49.09590 48.87197 50.25004 49.42429 51.05535
276.50384 49.17809 48.91604 50.32360 49.44014 51.09799
276.51345 49.21860 48.93265 50.40405 49.44393 51.17640
276.52303 49.23284 49.00845 50.44491 49.48682 51.20683
276.53263 49.23204 48.99410 50.47881 49.45275 51.24247
276.54223 49.38408 49.10311 50.57474 49.58771 51.28950
276.55182 49.32750 49.08889 50.56136 49.58334 51.28672
276.56142 49.48011 49.14283 50.68715 49.71015 51.37683
276.57099 49.50846 49.23826 50.79201 49.74609 51.45764
276.58061 49.51237 49.20751 50.76306 49.72020 51.42152
276.59018 49.59681 49.30220 50.85133 49.87160 51.49819
276.59978 49.69629 49.43294 50.91023 49.91100 51.52270
276.60936 49.68279 49.35505 50.87702 49.86726 51.47437
276.61897 49.76938 49.42287 50.90298 49.92175 51.54551
276.62857 49.76035 49.45518 50.92926 49.97388 51.54693
276.63814 49.76017 49.43462 51.01760 49.97782 51.60287
276.64775 49.91939 49.53866 51.10621 50.10292 51.67184
276.65733 49.93299 49.57907 51.13866 50.08050 51.63334
276.66693 49.95445 49.63449 51.13020 50.14787 51.58614
276.67651 50.03189 49.71116 51.24198 50.13051 51.68620
276.68612 50.03366 49.66679 51.25217 50.08336 51.68048
276.69569 50.12891 49.73251 51.28212 50.22565 51.69922
276.70530 50.14367 49.73093 51.29575 50.18021 51.66022
276.71487 50.25807 49.87610 51.41814 50.33976 51.72847
276.72445 50.20149 49.86043 51.44780 50.29074 51.72420
276.73406 50.21511 49.87066 51.45920 50.29357 51.73749
276.74363 50.24255 49.94083 51.44355 50.33243 51.80489
276.75324 50.28073 49.92555 51.48973 50.38228 51.74019
276.76281 50.27339 49.91999 51.58870 50.35797 51.76426
276.77242 50.28765 49.95297 51.55559 50.37623 51.69348
276.78199 50.44526 50.05149 51.61975 50.46975 51.74269
276.79160 50.47451 50.01736 51.66158 50.49029 51.68052
276.80118 50.46548 50.06230 51.65378 50.47451 51.61721
276.81075 50.48724 50.10320 51.69150 50.55109 51.65462
276.82035 50.44733 50.10586 51.73840 50.48877 51.66767
276.82994 50.54586 50.13284 51.77313 50.48057 51.67203
276.83954 50.59143 50.16035 51.80337 50.51784 51.64892
276.84911 50.53692 50.18595 51.79239 50.56150 51.60712
276.85870 50.55678 50.21718 51.86122 50.58489 51.61638
276.86830 50.68030 50.22179 51.91476 50.58580 51.63169
276.87787 50.64500 50.19460 51.88371 50.56761 51.52870
276.88747 50.62605 50.26766 51.87047 50.59800 51.47950
276.89706 50.67982 50.26828 51.89058 50.54939 51.50378
276.90663 50.63485 50.27182 51.83710 50.52214 51.45868
276.91623 50.66921 50.24829 51.87034 50.55367 51.48114
276.92581 50.67939 50.21501 51.89710 50.55957 51.43498
276.93539 50.71885 50.26787 51.94262 50.53211 51.36246
276.94499 50.74157 50.29473 51.97074 50.55957 51.39758
276.95457 50.68321 50.29995 51.92443 50.53549 51.29706
276.96414 50.65155 50.28598 51.92993 50.49058 51.23026
276.97375 50.66390 50.23468 51.83435 50.47273 51.12739
276.98333 50.67616 50.23047 51.92704 50.50515 51.21071
276.99290 50.71126 50.28139 51.93037 50.52367 51.20984
277.00251 50.73047 50.26516 51.92693 50.46464 51.13348
277.01208 50.73343 50.22186 51.94584 50.41560 51.11510
277.02166 50.69673 50.24291 51.92527 50.43893 51.06920
277.03126 50.65976 50.31453 51.88631 50.42308 51.04637
277.04084 50.62749 50.23378 51.92384 50.40194 51.01630
277.05042 50.60581 50.21682 51.87415 50.39144 51.01757
277.05999 50.59132 50.17598 51.87511 50.33690 50.97700
277.06959 50.55706 50.19165 51.81922 50.30212 50.91665
277.07918 50.57961 50.14185 51.80852 50.27904 50.86597
277.08875 50.60404 50.21049 51.78470 50.32634 50.88130
277.09832 50.54038 50.14353 51.76887 50.26259 50.86140
277.10794 50.50732 50.10569 51.75492 50.19157 50.78828
277.11751 50.48217 50.06640 51.70343 50.12369 50.73432
277.12708 50.44833 50.04768 51.66473 50.07917 50.68671
277.13665 50.40405 49.95665 51.63659 49.93714 50.64553
277.14627 50.39072 49.97594 51.61012 49.95275 50.64230
277.15584 50.25526 49.90938 51.56499 49.93820 50.59110
277.16541 50.28228 49.89207 51.54641 49.90474 50.57286
277.17499 50.18409 49.80763 51.49232 49.82377 50.49555
277.18457 50.21312 49.79957 51.48570 49.86609 50.48444
277.19417 50.14394 49.77822 51.41594 49.81953 50.45792
277.20375 50.08496 49.67150 51.32140 49.77345 50.39603
277.21332 50.02293 49.55333 51.28891 49.64201 50.31431
277.22290 50.00110 49.49996 51.21965 49.51403 50.30618
277.23248 49.92641 49.48445 51.21176 49.52323 50.29699
277.24205 49.84167 49.45670 51.19019 49.47465 50.27001
277.25165 49.83008 49.48060 51.17193 49.45652 50.25882
277.26123 49.80170 49.43129 51.12804 49.45834 50.24367
277.27081 49.77372 49.35672 51.07979 49.36452 50.21847
277.28038 49.77300 49.32725 51.02857 49.31205 50.19789
277.28995 49.72363 49.26842 50.98958 49.26011 50.18672
277.29954 49.64959 49.19164 50.93176 49.17252 50.14794
277.30914 49.60326 49.16335 50.85670 49.20957 50.12251
277.31871 49.54943 49.04203 50.79595 49.09298 50.15614
277.32830 49.48473 48.98420 50.78525 49.04270 50.11701
277.33787 49.44798 48.95434 50.68229 49.04191 50.08975
277.34744 49.38139 48.87582 50.63988 48.91184 50.08267
277.35702 49.36550 48.81070 50.58311 48.88908 50.06315
277.36660 49.28633 48.74506 50.53672 48.78366 50.04532
277.37617 49.21912 48.69184 50.53056 48.77571 50.02425
277.38574 49.18545 48.71466 50.48491 48.73334 50.03105
277.39532 49.11546 48.58130 50.42215 48.65481 50.05981
277.40490 48.98842 48.40213 50.27904 48.49109 49.98611
277.41450 48.95326 48.47018 50.28042 48.52058 49.97241
277.42408 48.94941 48.41239 50.26569 48.53091 50.01650
277.43365 48.86637 48.32599 50.24106 48.43303 50.06021
277.44323 48.89352 48.31777 50.24373 48.44518 50.04414
277.45281 48.82400 48.21985 50.13995 48.37186 49.99914
277.46238 48.78205 48.20173 50.07987 48.39184 50.03646
277.47195 48.66085 48.07927 50.02004 48.31626 50.03180
277.48154 48.64862 48.05045 49.98861 48.26502 50.03240
277.49111 48.53312 47.87757 49.88541 48.06468 50.01819
277.50068 48.55218 47.88643 49.89427 48.11821 50.01965
277.51025 48.47307 47.78376 49.86403 48.03410 50.05399
277.51984 48.49431 47.86605 49.85780 48.13021 50.07220
277.52941 48.50999 47.87491 49.85071 48.18142 50.08843
277.53898 48.32248 47.69324 49.69732 47.96291 50.06688
277.54856 48.28540 47.66323 49.64360 47.94783 50.09151
277.55814 48.28490 47.65735 49.67413 47.96959 50.10862
277.56771 48.23333 47.56951 49.61968 47.83460 50.08807
277.57729 48.26202 47.58576 49.63294 47.89606 50.13345
277.58686 48.16777 47.50214 49.58058 47.80513 50.12650
277.59644 48.14569 47.46666 49.52893 47.81616 50.08423
277.60602 48.06206 47.46727 49.49502 47.91021 50.16703
277.61559 48.09654 47.48057 49.53339 47.85075 50.21566
277.62516 48.05376 47.37914 49.51108 47.78915 50.22302
277.63474 48.00288 47.29424 49.44256 47.75647 50.18610
277.64429 48.03104 47.32053 49.47315 47.80798 50.21638
277.65386 47.99352 47.16459 49.38290 47.67845 50.26398
277.66343 47.99966 47.24915 49.39314 47.78375 50.29332
277.67302 47.86491 47.12243 49.38070 47.64212 50.29283
277.68259 47.90052 47.13097 49.33012 47.62119 50.28832
277.69216 47.92391 47.16083 49.37430 47.67525 50.31285
277.70174 47.81181 47.12634 49.31624 47.63497 50.31763
277.71132 47.81287 47.04546 49.31812 47.61180 50.33462
277.72089 47.95386 47.12091 49.32301 47.69269 50.37201
277.73047 47.84767 47.04028 49.33488 47.65739 50.43678
277.74001 47.87870 47.10480 49.34840 47.69665 50.46654
277.74959 47.77531 46.93528 49.29519 47.62207 50.47081
277.75917 47.83728 46.99800 49.32668 47.64638 50.45404
277.76874 47.82674 47.05953 49.33934 47.67655 50.48480
277.77831 47.79348 47.02056 49.29723 47.63958 50.50720
277.78789 47.92188 47.05870 49.35570 47.74133 50.51272
277.79747 47.82439 46.91467 49.32569 47.65682 50.52290
277.80701 47.85909 46.95992 49.30679 47.67271 50.53321
277.81658 47.77543 46.88398 49.28285 47.69253 50.53138
277.82617 47.77389 46.88791 49.29825 47.68125 50.55521
277.83574 47.86235 46.96578 49.32704 47.74145 50.60279
277.84531 47.94114 47.03570 49.38238 47.79093 50.59160
277.85489 47.91074 46.94540 49.34073 47.79384 50.58846
277.86443 47.92394 46.95508 49.37218 47.81503 50.59881
277.87401 47.85811 46.95172 49.37562 47.79207 50.58694
277.88359 47.98949 47.08311 49.40504 47.87836 50.60003
277.89316 47.86003 46.91192 49.36988 47.78200 50.60033
277.90270 47.87909 46.93566 49.40152 47.84776 50.61964
277.91228 47.95899 47.02579 49.43776 47.92352 50.61840
277.92186 48.03289 47.10357 49.47974 47.95172 50.60567
277.93143 47.96689 47.03476 49.43850 47.88048 50.59296
277.94100 47.98324 47.00263 49.48308 47.93254 50.61536
277.95056 48.03426 47.09493 49.50159 47.97930 50.62185
277.96013 48.01980 47.11642 49.49190 47.97602 50.63355
277.96970 48.07079 47.13368 49.55704 47.97940 50.61726
277.97925 48.09681 47.14983 49.57669 48.01072 50.57617
277.98883 48.06746 47.06738 49.54265 47.98504 50.53978
277.99840 48.12080 47.13911 49.56562 48.10430 50.54054
278.00798 48.16449 47.24482 49.62636 48.18402 50.50696
278.01752 48.10167 47.16714 49.61083 48.07620 50.47957
278.02710 48.14516 47.19683 49.63424 48.13321 50.45027
278.03667 48.23033 47.27712 49.68007 48.19980 50.42000
278.04622 48.20896 47.31152 49.66415 48.25529 50.39706
278.05579 48.20828 47.31974 49.73187 48.23711 50.38386
278.06537 48.27411 47.36226 49.76147 48.26947 50.35008
278.07495 48.28205 47.39687 49.76113 48.30772 50.30285
278.08449 48.30549 47.42441 49.75260 48.37881 50.28050
278.09406 48.33255 47.46584 49.73112 48.35902 50.24409
278.10361 48.44602 47.58950 49.80578 48.40917 50.21964
278.11319 48.40076 47.47312 49.79201 48.35988 50.13297
278.12276 48.42409 47.53125 49.84828 48.41982 50.06551
278.13231 48.43512 47.53665 49.82400 48.41516 50.00870
278.14188 48.45982 47.54888 49.84231 48.40962 49.97104
278.15146 48.44277 47.60216 49.83663 48.38367 49.86704
278.16101 48.51987 47.62856 49.82798 48.42213 49.81377
278.17058 48.50542 47.62457 49.80158 48.38560 49.75305
278.18015 48.52958 47.72827 49.85529 48.44621 49.71144
278.18970 48.50279 47.69879 49.88106 48.46106 49.63543
278.19928 48.54651 47.66001 49.88833 48.46501 49.57055
278.20513 49.08249 48.20119 50.15497 48.92466 49.81800
278.21483 49.36750 48.35367 50.53189 49.17674 50.03902
278.22453 49.51631 48.48870 50.82584 49.29982 50.15953
278.23422 49.37263 48.49104 50.76167 49.21626 49.97890
278.24396 49.17642 48.34803 50.42283 49.03995 49.69179
278.25365 49.56106 48.62824 50.85174 49.41552 50.00394
278.26335 49.48557 48.56542 50.71372 49.26549 49.80766
278.27304 49.51555 48.56140 50.75043 49.29350 49.74246
278.28274 49.41836 48.59858 50.64038 49.19308 49.49440
278.29244 49.43335 48.56011 50.63645 49.17147 49.52096
278.30213 49.40303 48.57869 50.59342 49.14698 49.41696
278.31184 49.47553 48.62144 50.63603 49.17298 49.30471
278.32153 49.39100 48.55259 50.56360 49.14228 49.17270
278.33126 49.36944 48.58962 50.59915 49.21097 49.07755
278.34096 49.34940 48.62157 50.59856 49.13178 48.99298
278.35066 49.31677 48.56466 50.49830 49.12033 48.92341
278.36035 49.33698 48.61384 50.44039 48.94068 48.74059
278.37005 49.30620 48.60493 50.46190 49.03401 48.65229
278.37975 49.11604 48.44688 50.12738 48.82560 48.38708
278.38945 49.27170 48.66274 50.38988 48.97585 48.52513
278.39914 49.26776 48.51490 50.37406 48.92546 48.47229
278.40884 49.23511 48.53918 50.30940 48.85529 48.27656
278.41854 49.02741 48.46028 50.16460 48.72368 48.00686
278.42823 49.09697 48.50083 50.25366 48.69970 48.04361
278.43794 49.20557 48.51177 50.23347 48.74928 47.95987
278.44763 48.90915 48.28071 49.97514 48.54708 47.74500
278.45733 48.96977 48.42322 50.03680 48.59195 47.63217
278.46702 48.81061 48.28012 49.85389 48.40807 47.46026
278.47676 48.96002 48.40073 49.99446 48.43835 47.45737
278.48645 48.82866 48.38298 49.92007 48.39387 47.35296
278.49615 48.72350 48.30342 49.77543 48.39158 47.22884
278.50585 48.57845 48.13777 49.61573 48.19876 47.02573
278.51555 48.77450 48.35468 49.65548 48.29906 46.99334
278.52524 48.59569 48.22694 49.62203 48.16074 46.91472
278.53494 48.46893 48.07823 49.42726 47.95782 46.68644
278.54464 48.43704 48.19640 49.54520 47.99735 46.68667
278.55433 48.38716 48.01894 49.42364 48.02044 46.56051
278.56403 48.20366 47.90614 49.23529 47.73378 46.31125
278.57373 48.03941 47.73800 49.01394 47.55339 46.13540
278.58343 48.18352 47.96091 49.17382 47.63843 46.20937
278.59309 48.15669 47.86148 49.10927 47.60473 46.12067
278.60280 47.90700 47.71020 48.91424 47.45010 45.93158
278.61249 47.85437 47.60357 48.77885 47.31708 45.80446
278.62219 47.79544 47.47365 48.67563 47.17571 45.69283
278.63189 47.72315 47.52949 48.63217 47.22795 45.68008
278.64158 47.60409 47.43992 48.58074 47.13525 45.46001
278.65128 47.51789 47.29498 48.39866 46.95394 45.24381
278.66097 47.40944 47.23224 48.33591 46.85908 45.25096
278.67068 47.31638 47.16677 48.30508 46.88527 45.14607
278.68037 47.33803 47.22481 48.23597 46.78270 45.11425
278.69007 47.14651 46.96156 47.97297 46.59699 44.93196
278.69977 47.08699 46.87658 47.86413 46.42494 44.79892
278.70947 46.78336 46.70494 47.70180 46.30995 44.57364
278.71916 46.95697 46.80389 47.89334 46.40211 44.70419
278.72887 46.83675 46.69426 47.72326 46.27015 44.53980
278.73856 46.65122 46.55374 47.47711 46.02028 44.37673
278.74822 46.62794 46.53757 47.46649 46.00509 44.36733
278.75793 46.40840 46.31167 47.18277 45.73996 44.14382
278.76762 46.38186 46.32195 47.25963 45.83886 44.12003
278.77732 46.33862 46.24022 47.13881 45.67348 44.06442
278.78701 46.14244 46.14777 47.04974 45.59980 43.94280
278.79672 46.06606 46.02813 46.80859 45.41542 43.81607
278.80641 45.87316 45.92611 46.74464 45.29411 43.77507
278.81611 45.89771 45.94729 46.78438 45.37221 43.78504
278.82578 45.76900 45.81975 46.54640 45.17607 43.66031
278.83548 45.50198 45.69852 46.45932 45.04892 43.46978
278.84517 45.54418 45.61600 46.42950 44.93149 43.38804
278.85487 45.35455 45.39518 46.24449 44.74462 43.26236
278.86457 45.36802 45.43442 46.06748 44.73300 43.22586
278.87426 45.28163 45.27082 46.03821 44.62092 43.23804
278.88393 45.11531 45.20923 45.96945 44.58354 43.15213
278.89363 45.01386 45.05444 45.85683 44.44813 43.03747
278.90333 44.84227 44.91596 45.70507 44.35621 42.96050
278.91302 44.66431 44.74598 45.51947 44.18738 42.86842
278.92273 44.70255 44.74372 45.48572 44.17608 42.88243
278.93242 44.51429 44.64528 45.32452 43.94033 42.70606
278.94208 44.44243 44.49739 45.27452 43.93083 42.68246
278.95179 44.28519 44.37221 45.07758 43.81851 42.61632
278.96148 44.09067 44.30542 45.02776 43.68168 42.48251
278.97118 44.11437 44.19435 44.93964 43.61391 42.51732
278.98084 44.06591 44.06935 44.83903 43.51508 42.42376
278.99055 43.81335 43.93282 44.68803 43.39444 42.43814
279.00024 43.86814 43.94829 44.66376 43.32379 42.30198
279.00994 43.75988 43.84452 44.53848 43.21194 42.34870
279.01964 43.66229 43.80006 44.47748 43.28279 42.29203
279.02931 43.43920 43.61918 44.31733 43.06293 42.17442
279.03900 43.34464 43.57582 44.21217 42.91087 42.20255
279.04870 43.27978 43.44176 44.19488 42.93655 42.15825
279.05840 43.24320 43.43458 44.03355 42.98685 42.10676
279.06806 43.13324 43.28536 43.94934 42.67093 42.04759
279.07776 43.07495 43.08487 43.84396 42.64877 41.93036
279.08746 42.91260 43.11585 43.75145 42.62835 41.93461
279.09716 42.96859 42.97949 43.62992 42.42673 41.92206
279.10682 42.75221 42.90612 43.54631 42.46408 41.92813
279.11653 42.74386 42.87851 43.48250 42.32526 41.88227
279.12622 42.64341 42.79204 43.44796 42.31447 41.95970
279.13588 42.48077 42.63370 43.31066 42.10089 41.87637
279.14559 42.56271 42.68482 43.26655 42.11676 41.89355
279.15528 42.37392 42.48747 43.16873 42.07130 41.79987
279.16495 42.24582 42.41335 43.09862 41.99282 41.84043
279.17465 42.24349 42.23615 42.95400 41.91836 41.80426
279.18435 42.19644 42.33622 43.01071 41.93349 41.89243
279.19404 42.17929 42.23293 42.89567 41.81695 41.84328
279.20371 42.04295 42.21385 42.84279 41.75143 41.86716
279.21341 41.94230 42.03204 42.69601 41.68534 41.76233
279.22310 41.89132 42.07049 42.70692 41.70379 41.83767
279.23277 41.84653 41.94177 42.59660 41.54157 41.87861
279.24247 41.78542 41.84471 42.50929 41.60951 41.92080
279.25214 41.68134 41.85985 42.56797 41.52156 41.84900
279.26183 41.62519 41.73433 42.42398 41.49059 41.84495
279.27154 41.68139 41.73608 42.40686 41.42198 41.99645
279.28120 41.50607 41.66246 42.33900 41.41753 41.94395
279.29089 41.54526 41.60705 42.27371 41.36954 41.95365
279.30059 41.51435 41.53861 42.25819 41.33967 41.94813
279.31026 41.42646 41.40849 42.14987 41.23650 41.98031
279.31996 41.35580 41.52332 42.15707 41.24736 41.95227
279.32962 41.34177 41.37308 42.15437 41.19149 41.97422
279.33933 41.26951 41.34184 42.02439 41.20245 42.02534
279.34902 41.28328 41.24522 42.01969 41.18623 42.09628
279.35869 41.26455 41.24891 42.01363 41.09909 42.13974
279.36839 41.13215 41.18680 41.89347 41.07322 42.11540
279.37805 41.20578 41.20435 41.93906 41.16049 42.21941
279.38775 41.09535 41.12668 41.88516 41.01751 42.24589
279.39744 41.14642 41.13305 41.85393 41.04234 42.24158
279.40712 41.01696 41.12110 41.90070 41.01314 42.21980
279.41681 41.05711 41.00126 41.80414 41.03515 42.35976
279.42648 41.04468 41.00467 41.78773 41.08517 42.38740
279.43618 40.96786 41.02947 41.73297 40.97932 42.46131
279.44584 41.00400 40.94934 41.79704 40.99058 42.48460
279.45554 41.07555 40.95959 41.77176 40.96151 42.50008
279.46524 41.02420 40.94938 41.75943 41.02468 42.57619
279.47491 40.91872 40.83823 41.77726 40.98531 42.60322
279.48460 40.97595 40.83779 41.69235 41.06145 42.67686
279.49428 41.02641 40.84150 41.74473 41.10747 42.72998
279.50397 40.92223 40.87575 41.71731 41.06410 42.85278
279.51364 40.99124 40.90790 41.71270 41.09977 42.92788
279.52333 40.97856 40.83679 41.68792 40.97856 42.88792
279.53300 40.98197 40.93827 41.78365 41.14950 43.07477
279.54270 40.95570 40.84373 41.80375 41.09590 43.14641
279.55236 40.95292 40.88737 41.73429 41.10298 43.13871
279.56207 40.90150 40.83311 41.74240 41.17843 43.25804
279.57173 41.02398 41.00101 41.81583 41.24168 43.36699
279.58143 41.01073 40.88615 41.80878 41.15965 43.35431
279.59110 41.03407 40.87927 41.84906 41.17078 43.53761
279.60079 41.06373 40.92615 41.84347 41.39743 43.53578
279.61046 41.06285 40.89462 41.79772 41.30971 43.64730
279.62015 41.07832 40.94917 41.92305 41.37632 43.72254
279.62983 41.17796 40.97489 41.92734 41.30565 43.82170
279.63952 41.17605 41.03319 41.96200 41.40212 43.91390
279.64919 41.19342 40.95724 41.95946 41.42338 43.94952
279.65886 41.26306 41.07249 41.97794 41.54413 44.11299
279.66855 41.19539 41.07509 42.10517 41.47562 44.14793
279.67822 41.41585 41.22152 42.16162 41.64905 44.24101
279.68792 41.27179 41.07503 42.11489 41.55604 44.23762
279.69759 41.40172 41.17983 42.24974 41.67861 44.31526
279.70728 41.39000 41.24845 42.21711 41.73471 44.44378
279.71696 41.48010 41.21248 42.25796 41.81031 44.59057
279.72662 41.55088 41.25976 42.34128 41.82953 44.63572
279.73631 41.60899 41.37346 42.47644 41.86812 44.76044
279.74598 41.59060 41.31631 42.42893 42.00420 44.70883
279.75568 41.62660 41.43759 42.43840 41.97507 44.83405
279.76535 41.74399 41.42634 42.49544 42.03609 44.92092
279.77501 41.82111 41.40622 42.68343 42.13408 45.07898
279.78472 41.90935 41.62228 42.70188 42.17352 45.14576
279.79438 41.88423 41.59177 42.67331 42.25076 45.03484
279.80407 41.98573 41.68030 42.82186 42.32246 45.40233
279.81375 42.06012 41.68032 42.85391 42.37014 45.34544
279.82341 42.16905 41.78328 42.99121 42.45504 45.47868
279.83311 42.20387 41.74505 42.99253 42.59652 45.58674
279.84277 42.24902 41.81684 43.07266 42.62466 45.58574
279.85245 42.33336 41.89584 43.14474 42.67993 45.70525
279.86214 42.37118 41.96383 43.22792 42.74368 45.78093
279.87180 42.52575 42.01982 43.26017 42.80983 45.83065
279.88148 42.51603 42.02663 43.34598 42.88368 45.84961
279.89117 42.53514 42.14593 43.50268 42.90808 45.96771
279.90084 42.69969 42.23290 43.55000 43.05579 46.07834
279.91051 42.79220 42.26313 43.57453 43.07616 46.12010
279.92021 42.73544 42.32204 43.57029 43.11001 46.15108
279.92987 42.93952 42.41583 43.80808 43.28157 46.19345
279.93954 42.98086 42.48259 43.86230 43.31477 46.42563
279.94924 43.08264 42.55401 43.93491 43.42810 46.46324
279.95890 43.17804 42.68647 44.05420 43.45947 46.56477
279.96857 43.20876 42.55251 44.02002 43.50074 46.42481
279.97827 43.33492 42.71072 44.22296 43.60637 46.64939
279.98794 43.37169 42.84550 44.21255 43.71617 46.60926
279.99760 43.43728 42.85789 44.31927 43.80134 46.72549
280.00727 43.46375 42.90456 44.34879 43.72452 46.70503
280.01697 43.52640 42.98997 44.40652 43.91189 46.74590
280.02663 43.70710 43.09184 44.56127 43.96424 46.97791
280.03631 43.77687 43.17115 44.58434 44.04462 46.93936
280.04597 43.79250 43.21423 44.66363 44.07143 46.93124
280.05566 43.84878 43.19759 44.76053 44.13156 46.93115
280.06533 43.94410 43.30207 44.86334 44.26117 47.08240
280.07500 44.05582 43.35957 44.91883 44.24297 47.08215
280.08467 44.24205 43.53693 45.14247 44.37473 47.25690
280.09436 44.25884 43.60410 45.15601 44.50919 47.20071
280.10404 44.27634 43.64066 45.14614 44.57016 47.18516
280.11370 44.43600 43.73491 45.42471 44.64717 47.34806
280.12336 44.40290 43.72221 45.28473 44.60730 47.24068
280.13304 44.51602 43.78020 45.38264 44.68841 47.29903
280.14273 44.70758 43.90713 45.60021 44.82845 47.40569
280.15240 44.62839 43.96742 45.51425 44.82540 47.28927
280.16207 44.62208 44.00513 45.61154 44.81422 47.27117
280.17173 44.88367 44.12497 45.78672 45.03223 47.53563
280.18140 44.74328 44.09627 45.60456 44.88006 47.24497
280.19109 44.91440 44.24485 45.89369 45.08967 47.41271
280.20077 44.99145 44.23717 45.93161 45.07318 47.39954
280.21043 45.22824 44.39486 46.11867 45.22589 47.59925
280.22010 45.07600 44.31341 45.97294 45.11392 47.34737
280.22977 45.17887 44.39943 46.21982 45.21596 47.48520
280.23946 45.21519 44.46288 46.19343 45.24853 47.42260
280.24913 45.34199 44.47813 46.24110 45.34339 47.46294
280.25880 45.32204 44.54213 46.30098 45.31417 47.41323
280.26847 45.44178 44.63397 46.44035 45.44686 47.49203
280.27813 45.47895 44.59245 46.41303 45.40688 47.43072
280.28779 45.59173 44.74622 46.57652 45.59451 47.49910
280.29747 45.55088 44.72157 46.61382 45.43919 47.47617
280.30713 45.60527 44.75837 46.60797 45.51877 47.46790
280.31683 45.72339 44.86715 46.61918 45.59402 47.44423
280.32650 45.65923 44.92201 46.75379 45.67050 47.51731
280.33617 45.82989 44.96048 46.85455 45.68122 47.49249
280.34583 45.73084 44.86690 46.70825 45.50621 47.26024
280.35550 45.78850 44.97868 46.93304 45.60627 47.43883
280.36517 45.89453 45.03304 46.90269 45.70097 47.36871
280.37483 45.78596 44.95166 46.76774 45.53461 47.22964
280.38451 45.96759 45.04346 47.07711 45.76784 47.40663
280.39417 45.94657 45.10399 46.99516 45.64220 47.27911
280.40383 45.93045 45.07717 46.96179 45.62915 47.25090
280.41353 46.05847 45.16446 47.11408 45.70739 47.32766
280.42320 45.97413 45.14511 47.05830 45.65637 47.22857
280.43287 45.96685 45.04766 46.99158 45.62275 47.24339
280.44253 46.13023 45.19945 47.17748 45.67904 47.27880
280.45220 45.98485 45.10670 47.06915 45.66458 47.17575
280.46187 46.10564 45.24384 47.24023 45.67871 47.19399
280.47153 45.95754 45.10835 47.02565 45.58942 47.04332
280.48121 46.05977 45.17067 47.16951 45.62644 47.10547
280.49087 46.12446 45.19728 47.25033 45.72945 47.21933
280.50054 45.91867 45.00215 47.00976 45.49678 46.91590
280.51021 46.19968 45.28150 47.30751 45.70022 47.20095
280.51987 45.90566 45.05476 47.07055 45.52832 46.91849
280.52954 46.00025 45.05424 47.09773 45.49276 46.99800
280.53920 46.01112 45.07151 47.13764 45.41099 46.96141
280.54888 45.99919 45.14160 47.22996 45.45960 47.04593
280.55854 45.96263 45.07072 47.16158 45.40466 46.92225
280.56820 45.94124 45.05013 47.09598 45.38337 46.85371
280.57788 45.92057 44.98999 47.09173 45.31613 46.87323
280.58754 45.89224 44.98861 47.21277 45.28100 46.90077
280.59721 46.04097 45.08454 47.25410 45.41979 47.00152
280.60688 45.92284 45.06552 47.16084 45.25380 46.80118
280.61654 45.90520 44.92594 47.13933 45.29064 46.84510
280.62621 45.85838 44.93626 47.14479 45.21312 46.84641
280.63587 45.79242 44.98687 47.07359 45.21250 46.75835
280.64555 45.79807 44.88528 47.11594 45.19417 46.82185
280.65521 45.77020 44.77815 47.04661 45.11346 46.77197
280.66487 45.61878 44.76186 46.97685 45.07842 46.65891
280.67455 45.83443 44.90048 47.17301 45.14759 46.96469
280.68421 45.63582 44.67812 46.97179 45.01523 46.71792
280.69385 45.52886 44.69479 46.88199 44.91816 46.69593
280.70352 45.68962 44.73293 46.98553 44.92134 46.86268
280.71318 45.49931 44.66505 46.80319 44.75632 46.70735
280.72285 45.66792 44.61882 46.87367 44.86454 46.77593
280.73252 45.42625 44.50536 46.86159 44.77602 46.80189
280.74219 45.49718 44.47458 46.92837 44.71501 46.78748
280.75185 45.36745 44.40707 46.69255 44.65250 46.61906
280.76151 45.42064 44.44219 46.83471 44.70202 46.85561
280.77119 45.31186 44.40080 46.72546 44.60100 46.75167
280.78085 45.19406 44.16128 46.56479 44.44741 46.59903
280.79052 45.33547 44.35117 46.87622 44.63731 46.88527
280.80016 45.20638 44.18590 46.64634 44.40656 46.77691
280.80982 45.20078 44.20568 46.68521 44.45970 46.79649
280.81949 45.19299 44.12438 46.63015 44.40057 46.83226
280.82916 45.07333 44.11789 46.53853 44.34943 46.85884
280.83883 45.00361 44.08039 46.51875 44.32911 46.80033
280.84849 45.04421 44.06941 46.62718 44.33044 46.99335
280.85816 44.98801 43.90980 46.35298 44.13677 46.75482
280.86780 45.05101 43.97819 46.55759 44.28523 47.03359
280.87746 44.82079 43.81394 46.35214 44.11359 46.82179
280.88713 44.78769 43.78758 46.39927 44.16398 46.96771
280.89680 44.90561 43.78533 46.37817 44.14985 46.94374
280.90646 44.76331 43.77438 46.37370 44.01303 46.96669
280.91613 44.84765 43.72591 46.44763 44.05241 47.08933
280.92577 44.76587 43.63994 46.32534 43.93482 47.03530
280.93544 44.67472 43.56432 46.23890 43.97949 47.12040
280.94510 44.67366 43.56312 46.33160 43.99021 47.22544
280.95477 44.72285 43.53823 46.23336 43.90451 47.23552
280.96444 44.64779 43.48233 46.27137 43.96041 47.29654
280.97407 44.59463 43.52721 46.24353 43.92438 47.28241
280.98375 44.57211 43.44521 46.20810 43.83146 47.41553
280.99341 44.57899 43.30256 46.15627 43.80669 47.35057
281.00307 44.55208 43.42200 46.20893 43.87538 47.36692
281.01271 44.53739 43.38087 46.20418 43.84357 47.42218
281.02238 44.62287 43.39381 46.26042 43.85138 47.57056
281.03205 44.55053 43.34578 46.21776 43.83835 47.60340
281.04171 44.42230 43.25059 46.18262 43.69067 47.59253
281.05135 44.50229 43.20836 46.14560 43.74738 47.67152
281.06102 44.54080 43.24303 46.23531 43.81261 47.85580
281.07068 44.38672 43.15990 46.10894 43.64062 47.67644
281.08036 44.36926 43.21022 46.20025 43.69457 47.86153
281.08999 44.41134 43.17767 46.12754 43.79245 47.90759
281.09965 44.31483 43.14718 46.12153 43.69403 47.96840
281.10933 44.38670 43.15018 46.21371 43.77280 47.95990
281.11899 44.40335 43.05008 46.09071 43.72648 48.04112
281.12863 44.36102 43.00328 46.09644 43.74677 48.12597
281.13829 44.43771 43.05257 46.25688 43.81063 48.31382
281.14796 44.30820 43.01975 46.09031 43.74564 48.18312
281.15760 44.48393 43.12995 46.37869 43.82725 48.56141
281.16726 44.41468 43.05415 46.20134 43.79509 48.41003
281.17694 44.49848 43.08705 46.25787 43.81167 48.54649
281.18657 44.40027 43.13193 46.32358 43.86414 48.59015
281.19623 44.46907 43.15975 46.40017 43.86569 48.83854
281.20591 44.41910 42.97476 46.15194 43.82271 48.68842
281.21554 44.53600 43.14584 46.44474 43.95619 49.04832
281.22520 44.44275 43.10226 46.26234 43.87143 48.74964
281.23488 44.65439 43.09588 46.48503 43.99944 48.97338
281.24451 44.58232 43.11522 46.40875 44.01150 48.96347
281.25418 44.58536 43.21956 46.54941 44.01768 49.17742
281.26384 44.64914 43.13730 46.52889 44.10665 49.18787
281.27348 44.72913 43.20144 46.56860 44.20474 49.30301
281.28315 44.69375 43.20772 46.62652 44.20194 49.38511
281.29281 44.72676 43.11152 46.59243 44.13798 49.33211
281.30246 44.74536 43.26517 46.63331 44.25242 49.43699
281.31212 44.87919 43.30691 46.78249 44.32988 49.64175
281.32175 44.88723 43.27288 46.77018 44.34281 49.56199
281.33143 44.85688 43.29112 46.81071 44.30666 49.65163
281.34109 44.95370 43.34412 46.96849 44.46420 49.97580
281.35072 44.90726 43.30046 46.79935 44.37902 49.68572
281.36040 45.11610 43.43976 47.04854 44.56288 50.05992
281.37003 44.96095 43.44032 46.96952 44.47843 49.85926
281.37970 45.24507 43.56595 47.15471 44.67467 50.13871
281.38936 45.14906 43.47816 47.10221 44.64951 50.03553
281.39900 45.22810 43.58597 47.29417 44.77123 50.31052
281.40867 45.17990 43.55851 47.22107 44.74927 50.13433
281.41830 45.36811 43.65961 47.36770 44.82037 50.37571
281.42798 45.34919 43.78558 47.34564 44.85496 50.44603
281.43761 45.30259 43.70230 47.32510 44.91781 50.30614
281.44727 45.58882 43.95285 47.60032 45.14933 50.81378
281.45695 45.57353 43.89628 47.56592 45.06302 50.62167
281.46658 45.60283 43.92890 47.61738 45.16112 50.75031
281.47625 45.69240 44.00222 47.72954 45.26770 50.73478
281.48589 45.68734 44.00729 47.60746 45.22732 50.69090
281.49555 45.78983 44.09277 47.86039 45.35201 50.80980
281.50519 45.88856 44.12605 47.94750 45.40646 50.90584
281.51485 46.04403 44.29800 48.11135 45.65547 51.10959
281.52449 45.95932 44.28517 47.97077 45.51310 51.00276
281.53416 46.09428 44.36402 48.15258 45.66933 51.11901
281.54379 46.11430 44.45792 48.20927 45.75826 51.15012
281.55347 46.16603 44.51476 48.27992 45.78490 51.19862
281.56310 46.26280 44.52424 48.31965 45.87141 51.28687
281.57276 46.31157 44.60895 48.39437 45.98992 51.24796
281.58241 46.47675 44.63570 48.50491 45.97494 51.35685
281.59207 46.48613 44.74142 48.55882 46.07250 51.40091
281.60170 46.56002 44.75582 48.53065 46.18751 51.48476
281.61138 46.66018 44.78743 48.71679 46.24310 51.50648
281.62101 46.74631 44.93919 48.71353 46.27659 51.61698
281.63065 46.75533 44.92260 48.74048 46.30129 51.51168
281.64031 46.93175 45.09462 49.03620 46.52149 51.79698
281.64995 46.81541 45.00956 48.84188 46.37558 51.41336
281.65962 47.01916 45.20371 49.05731 46.62028 51.74818
281.66925 46.98223 45.19576 48.95213 46.56522 51.54708
281.67892 47.22509 45.33985 49.30295 46.75168 51.85375
281.68856 47.30814 45.44598 49.41778 46.85772 51.87800
281.69822 47.13484 45.43939 49.16514 46.83379 51.63176
281.70787 47.38478 45.56072 49.33406 46.98231 51.82091
281.71750 47.36610 45.56636 49.32996 46.95437 51.80365
281.72716 47.41680 45.73348 49.48589 47.08391 51.85482
281.73681 47.54032 45.73190 49.53458 47.05952 51.89673
281.74647 47.64270 45.73042 49.54191 47.15063 51.85243
281.75610 47.66435 45.93377 49.67740 47.26220 51.97571
281.76574 47.68279 46.01534 49.70633 47.28874 51.93500
281.77541 47.84989 46.03975 49.85102 47.46237 52.08113
281.78505 47.79236 46.00696 49.74426 47.33334 51.89009
281.79468 48.06170 46.22497 49.98518 47.52573 52.17735
281.80435 47.97441 46.21415 49.96385 47.51556 52.07238
281.81399 48.00905 46.30177 49.96914 47.67166 52.03083
281.82365 48.12934 46.45767 50.23140 47.78088 52.16535
281.83329 48.08108 46.37178 50.04292 47.63255 51.97037
281.84293 48.24271 46.51224 50.14763 47.81693 52.01578
281.85259 48.33225 46.58369 50.29648 47.86916 52.27399
281.86224 48.32245 46.57809 50.27418 47.79431 52.11250
281.87187 48.39321 46.69055 50.33069 47.91312 52.05284
281.88153 48.40855 46.70928 50.38103 47.89353 52.06363
281.89118 48.57554 46.77993 50.44781 48.01849 52.14403
281.90081 48.49002 46.80785 50.32810 47.93710 51.95784
281.91044 48.66162 46.94980 50.66007 48.21633 52.24301
281.92011 48.51007 46.91360 50.52664 48.07458 52.06623
281.92975 48.69248 47.06663 50.59571 48.23846 52.16814
281.93939 48.64085 47.04727 50.66032 48.19427 52.19749
281.94905 48.76822 47.26867 50.73312 48.34663 52.19644
281.95869 48.72502 47.12690 50.58192 48.30478 52.05556
281.96833 48.77875 47.20242 50.75743 48.38851 52.12374
281.97799 48.90224 47.29497 50.78749 48.43463 52.15148
281.98763 48.83882 47.20464 50.64733 48.27677 51.96921
281.99727 48.80077 47.34770 50.75673 48.35392 52.04727
282.00690 48.96378 47.37935 50.88694 48.46309 52.18817
282.01658 48.96598 47.28327 50.78588 48.34998 51.97965
282.02621 49.06188 47.51339 50.97664 48.55739 52.15793
282.03584 49.03814 47.59862 51.00941 48.52896 52.17015
282.04548 49.02651 47.58374 50.86802 48.47928 51.97867
282.05515 49.18439 47.63868 51.00069 48.60642 52.05816
282.06478 49.07393 47.58190 50.93160 48.60007 52.03450
282.07442 49.11822 47.58812 50.92387 48.62111 52.05287
282.08406 49.18720 47.70187 51.01326 48.65732 52.07625
282.09369 49.12639 47.72389 51.02187 48.71170 52.07259
282.10336 49.10172 47.65546 51.02041 48.62508 52.06145
282.11300 49.31849 47.81609 51.16724 48.71051 52.19411
282.12264 49.24952 47.72414 51.05509 48.71159 51.99670
282.13227 49.26580 47.87351 51.15156 48.75734 52.06304
282.14191 49.32977 47.87052 51.18027 48.77284 52.10832
282.15158 49.28289 47.87530 51.11606 48.72600 52.06454
282.16121 49.34803 47.88277 51.12724 48.70847 52.07328
282.17084 49.42584 47.95156 51.24293 48.80999 52.15382
282.18049 49.27659 47.85324 50.98275 48.70024 51.91155
282.19012 49.31505 47.87443 51.10982 48.70075 52.01993
282.19975 49.30877 47.96228 51.18740 48.74527 51.96163
282.20943 49.33688 48.03907 51.12481 48.75609 52.05813
282.21906 49.40413 48.03229 51.06828 48.80015 52.13537
282.22870 49.46146 48.10271 51.32773 48.89015 52.16794
282.23834 49.44281 48.14445 51.24683 48.86505 52.12082
282.24797 49.39720 48.05909 51.16506 48.78440 52.04346
282.25761 49.41140 48.12722 51.24574 48.83993 52.08302
282.26725 49.38029 48.11122 51.13769 48.82914 52.01685
282.27691 49.35266 48.12977 51.19458 48.87124 52.11002
282.28655 49.29025 48.05463 51.02918 48.73293 51.87417
282.29619 49.52102 48.08989 51.30586 48.92700 52.18062
282.30582 49.49698 48.20955 51.23720 48.94989 52.21001
282.31546 49.47173 48.26643 51.24317 48.92607 52.16703
282.32509 49.47405 48.19533 51.24194 48.93234 52.07474
282.33474 49.46229 48.12345 51.19021 48.93779 52.00408
282.34437 49.31872 48.11051 51.12664 48.82649 51.95426
282.35400 49.33650 48.06147 51.09672 48.80459 51.86596
282.36365 49.41867 48.12936 51.19169 48.88910 52.03396
282.37331 49.53938 48.30212 51.34988 49.02927 52.26735
282.38294 49.37990 48.16415 51.20515 48.89812 52.10141
282.39259 49.29389 48.08487 51.07464 48.80056 51.89441
282.40222 49.45655 48.16984 51.21106 48.88797 52.00625
282.41185 49.48349 48.24711 51.20732 49.00607 52.00317
282.42150 49.56739 48.27586 51.25418 48.98697 52.13729
282.43113 49.49600 48.36692 51.26585 48.99908 52.15123
282.44077 49.28952 48.13664 51.04699 48.84789 52.00334
282.45040 49.64468 48.37366 51.39973 49.11207 52.27749
282.46004 49.46772 48.29999 51.29374 48.89442 52.14863
282.46968 49.32844 48.13704 51.08046 48.78248 51.92392
282.47931 49.48526 48.36635 51.25861 48.97878 52.16972
282.48895 49.51825 48.32711 51.22380 48.97467 52.08843
282.49859 49.33918 48.17340 51.07536 48.90184 52.01316
282.50822 49.39011 48.18347 51.10378 48.92794 52.05849
282.51786 49.51823 48.31132 51.22887 48.96169 52.23129
282.52750 49.58832 48.32046 51.29959 49.06788 52.29096
282.53713 49.47600 48.29704 51.24075 49.02941 52.11968
282.54677 49.33974 48.19332 51.07119 48.89063 52.00305
282.55641 49.44173 48.23388 51.08048 48.93549 52.04018
282.56604 49.49601 48.30221 51.16860 49.04608 52.20507
282.57568 49.47004 48.30560 51.18237 49.03823 52.08031
282.58532 49.61433 48.44510 51.42920 49.16490 52.30364
282.59495 49.34291 48.23222 51.02002 48.82534 51.96964
282.60459 49.47202 48.45410 51.30716 49.09692 52.27842
282.61423 49.46537 48.38052 51.14955 48.98210 52.02360
282.62386 49.51638 48.37411 51.20862 49.06371 52.15316
282.63350 49.53645 48.32609 51.28222 49.03671 52.16759
282.64314 49.48218 48.32393 51.14880 49.00930 52.05819
282.65274 49.61614 48.43757 51.34123 49.11639 52.23117
282.66238 49.55646 48.31600 51.22523 49.02287 52.13203
282.67202 49.59088 48.39865 51.22232 49.10246 52.09854
282.68165 49.50385 48.37226 51.22136 49.08686 52.10487
282.69129 49.70802 48.52664 51.40792 49.19172 52.27890
282.70093 49.49714 48.33878 51.19708 49.06663 52.03864
282.71056 49.59679 48.46500 51.32637 49.23518 52.22195
282.72020 49.62981 48.51514 51.38016 49.13480 52.18811
282.72983 49.57332 48.45610 51.24713 49.13788 52.12651
282.73947 49.63016 48.51353 51.33339 49.19866 52.12640
282.74908 49.62840 48.46745 51.22121 49.12837 52.10942
282.75871 49.62670 48.51608 51.29151 49.09615 52.01348
282.76835 49.66947 48.52380 51.29021 49.19844 52.11002
282.77799 49.85502 48.65669 51.46473 49.33356 52.40527
282.78762 49.62098 48.48715 51.19596 49.15496 51.91445
282.79727 49.55812 48.48608 51.18983 49.14885 52.03225
282.80690 49.66422 48.60190 51.29862 49.17577 52.06886
282.81650 49.64700 48.49925 51.23100 49.16851 51.95674
282.82615 49.63610 48.51707 51.25610 49.20372 51.93473
282.83578 49.82502 48.66385 51.46447 49.36019 52.21375
282.84541 49.63257 48.58340 51.34564 49.26164 52.07630
282.85506 49.74287 48.68866 51.38571 49.32260 52.01699
282.86469 49.72291 48.60991 51.28537 49.26989 51.91204
282.87429 49.79954 48.62081 51.36866 49.31458 52.01335
282.88393 49.72408 48.61443 51.32616 49.26095 52.01841
282.89357 49.66438 48.52821 51.20922 49.20610 51.88755
282.90320 49.86942 48.73839 51.38012 49.33496 52.00019
282.91284 49.73538 48.67655 51.39805 49.30623 51.94842
282.92245 49.69295 48.70944 51.34869 49.26613 51.92778
282.93208 50.01078 48.89073 51.53251 49.48788 52.11579
282.94172 49.63724 48.64056 51.24826 49.24062 51.73991
282.95136 49.84422 48.76571 51.46426 49.40740 51.98231
282.96096 49.80283 48.76381 51.43467 49.42134 51.95328
282.97060 49.78765 48.74323 51.37722 49.30008 51.84546
282.98024 49.72626 48.75649 51.30444 49.28448 51.69084
282.98987 49.89917 48.83559 51.51751 49.46527 51.96925
282.99948 49.71712 48.69980 51.28001 49.25515 51.76955
283.00912 49.85081 48.75488 51.38279 49.36180 51.80817
283.01875 49.78538 48.73744 51.29922 49.33684 51.70861
283.02839 49.95107 48.94480 51.52578 49.47656 51.89699
283.03799 49.83548 48.88150 51.51467 49.49438 51.94682
283.04763 49.89916 48.82606 51.43001 49.41225 51.78710
283.05727 49.82162 48.82816 51.43007 49.40159 51.68072
283.06690 49.96340 48.92781 51.51815 49.43877 51.77021
283.07652 49.81404 48.82552 51.44056 49.41727 51.71444
283.08615 49.88106 48.84274 51.42365 49.45211 51.67804
283.09578 49.77456 48.83579 51.23089 49.33587 51.62746
283.10540 49.91796 49.03354 51.49828 49.54859 51.85773
283.11503 49.79990 48.75269 51.28911 49.32616 51.55703
283.12466 50.05160 49.09007 51.58414 49.63107 51.81237
283.13428 49.78238 48.84873 51.34621 49.38550 51.54351
283.14391 49.90267 48.93846 51.40150 49.48125 51.67062
283.15354 49.83542 48.92335 51.39633 49.42183 51.59410
283.16316 49.89569 48.96303 51.38695 49.45697 51.62584
283.17279 49.93535 48.93945 51.42293 49.51928 51.66318
283.18242 49.65585 48.72179 51.09373 49.22516 51.35797
283.19203 49.80074 48.88197 51.27303 49.30789 51.46712
283.20167 49.98218 49.00341 51.51554 49.52182 51.72495
283.21130 49.71885 48.87452 51.20765 49.29557 51.33912
283.22091 49.71152 48.85005 51.27478 49.30518 51.42162
283.23055 49.95737 49.05746 51.48692 49.49568 51.63712
283.24015 49.77817 48.93097 51.32466 49.40483 51.49826
283.24979 49.80223 48.81760 51.28228 49.33697 51.51025
283.25943 49.79076 48.90604 51.23188 49.32211 51.46041
283.26903 49.80029 48.91127 51.36947 49.35489 51.47501
283.27867 49.71964 48.82983 51.25630 49.32957 51.37354
283.28828 49.82281 48.90051 51.33130 49.38605 51.46034
283.29791 49.78783 48.93419 51.27326 49.38280 51.46311
283.30755 49.73477 48.89204 51.23513 49.30406 51.33479
283.31716 49.99978 49.04405 51.45244 49.54277 51.66985
283.32679 49.62810 48.77666 51.07555 49.14547 51.20526
283.33640 49.83111 48.93678 51.32591 49.42034 51.46974
283.34603 49.71449 48.92881 51.20102 49.29823 51.42771
283.35564 49.69904 48.80932 51.16723 49.23081 51.37048
283.36528 49.68549 48.82254 51.14211 49.24697 51.37790
283.37491 49.67393 48.83953 51.18631 49.24684 51.35504
283.38452 49.70647 48.79875 51.13722 49.21858 51.34318
283.39416 49.73754 48.79190 51.15031 49.23320 51.34338
283.40376 49.57064 48.78875 50.98658 49.17512 51.22948
283.41340 49.72955 48.85820 51.24415 49.25323 51.47487
283.42301 49.74357 48.83669 51.19912 49.22736 51.43967
283.43264 49.68625 48.82629 51.10996 49.16931 51.27816
283.44225 49.68118 48.82089 51.11249 49.16509 51.33133
283.45189 49.63555 48.72132 51.10904 49.26419 51.41526
283.46149 49.55407 48.66600 51.01172 49.09726 51.19498
283.47113 49.53652 48.70676 50.96326 49.08670 51.17550
283.48074 49.68539 48.86515 51.21162 49.28709 51.51494
283.49037 49.64863 48.77824 51.06406 49.08818 51.35771
283.49997 49.69828 48.81159 51.14890 49.17711 51.48489
283.50962 49.48646 48.62316 50.87294 49.04425 51.20031
283.51922 49.61308 48.71519 51.12415 49.12954 51.38957
283.52885 49.52253 48.67269 51.06267 49.06496 51.38174
283.53847 49.57757 48.77750 51.03577 49.15131 51.41046
283.54810 49.54227 48.68644 51.00006 49.13271 51.37291
283.55770 49.57352 48.75739 51.03495 49.09066 51.39964
283.56731 49.41756 48.54225 50.83751 48.96886 51.19339
283.57695 49.67036 48.78015 51.10709 49.20843 51.58806
283.58655 49.49907 48.63847 50.95013 49.08474 51.39818
283.59620 49.62821 48.75118 51.00850 49.11166 51.47584
283.60580 49.41469 48.59330 50.86277 48.95787 51.34842
283.61543 49.60961 48.72597 51.08086 49.19535 51.59335
283.62504 49.53022 48.67185 50.98648 49.06367 51.50699
283.63465 49.39165 48.55563 50.85436 49.00904 51.31745
283.64428 49.59071 48.66444 51.02628 49.13000 51.57577
283.65388 49.51487 48.59522 50.92631 49.08789 51.51264
283.66353 49.39943 48.55698 50.87292 48.98111 51.40431
283.67313 49.46706 48.57412 50.89945 49.00532 51.39084
283.68273 49.68700 48.65699 51.11466 49.20723 51.68464
283.69238 49.46627 48.50260 50.92189 48.95546 51.50908
283.70198 49.42819 48.48102 50.89246 49.00663 51.37906
283.71161 49.42327 48.53395 50.92312 49.04303 51.51345
283.72123 49.49584 48.56496 51.00102 49.09373 51.55009
283.73083 49.35329 48.46826 50.79522 48.98696 51.39033
283.74046 49.42277 48.46302 50.83266 48.97932 51.43703
283.75008 49.52558 48.69249 50.91391 49.13170 51.56295
283.75968 49.57752 48.64924 51.04450 49.11649 51.68835
283.76931 49.47661 48.59024 50.95583 49.06451 51.53623
283.77893 49.63762 48.67225 51.05869 49.20644 51.75563
283.78853 49.48697 48.51661 51.00081 49.10941 51.58957
283.79816 49.50190 48.55345 50.95196 49.12907 51.60475
283.80777 49.55409 48.61194 51.00493 49.20974 51.69721
283.81738 49.52414 48.63043 50.98402 49.13761 51.58147
283.82701 49.57057 48.58543 51.04382 49.12534 51.65563
283.83662 49.45055 48.57937 50.99121 49.10306 51.61195
283.84623 49.39956 48.51416 50.96671 49.08917 51.55922
283.85586 49.65679 48.70061 51.23508 49.27754 51.88804
283.86547 49.33348 48.44242 50.81326 48.96509 51.45118
283.87508 49.60519 48.67842 51.13464 49.25196 51.85212
283.88468 49.53146 48.61355 50.97659 49.16288 51.69209
283.89431 49.50690 48.67064 51.06500 49.24263 51.75183
283.90393 49.60095 48.61133 51.06075 49.19649 51.84570
283.91353 49.57154 48.60486 51.04408 49.16993 51.74743
283.92313 49.58494 48.63029 51.08195 49.19293 51.82627
283.93278 49.52378 48.60746 51.10795 49.22554 51.79915
283.94238 49.69408 48.74718 51.10979 49.36802 51.85752
283.95198 49.52451 48.60392 50.99192 49.16526 51.69810
283.96160 49.65244 48.73572 51.16723 49.32365 51.85213
283.97123 49.53732 48.74094 51.08604 49.21533 51.82164
283.98083 49.65251 48.79597 51.11318 49.29899 51.82110
283.99044 49.70546 48.75745 51.24845 49.35332 51.85093
284.00005 49.72111 48.72217 51.31156 49.42447 51.97590
284.00968 49.66296 48.72856 51.13678 49.30320 51.87612
284.01929 49.72812 48.78747 51.18873 49.37110 51.93396
284.02890 49.78993 48.81062 51.28323 49.45399 52.04852
284.03850 49.62313 48.66231 51.09264 49.25608 51.79034
284.04811 49.74695 48.77107 51.24600 49.39451 51.96664
284.05772 49.84125 48.92394 51.31062 49.53198 52.09889
284.06735 49.84472 48.93939 51.36120 49.49413 52.04490
284.07695 49.66772 48.76310 51.23638 49.39957 51.96559
284.08657 49.87480 48.90679 51.40374 49.57455 52.11282
284.09617 49.99409 49.03799 51.49370 49.62029 52.15667
284.10577 49.80208 48.84588 51.33288 49.44262 52.00886
284.11542 49.85549 48.92215 51.35701 49.53875 51.99316
284.12502 49.90910 48.96898 51.35311 49.46709 52.05820
284.13462 49.89418 49.03700 51.41859 49.53387 52.06136
284.14423 50.03852 49.08318 51.50324 49.72421 52.15536
284.15384 49.88773 48.94270 51.43266 49.55274 52.08017
284.16344 49.85200 48.91771 51.34820 49.52566 51.93421
284.17305 50.02728 49.03365 51.51421 49.69431 52.09141
284.18266 50.09961 49.19941 51.61063 49.76934 52.32613
284.19229 50.14367 49.14702 51.66843 49.80649 52.26923
284.20190 49.86403 48.92086 51.32332 49.46187 51.93289
284.21151 50.23074 49.32184 51.79086 49.92938 52.41805
284.22111 50.02240 49.08621 51.57122 49.77438 52.18778
284.23071 50.04194 49.12021 51.56463 49.74823 52.16472
284.24033 50.13145 49.18079 51.61089 49.78635 52.21383
284.24993 50.48137 49.44047 51.96063 50.10981 52.57059
284.25953 50.11322 49.14422 51.56825 49.80174 52.18771
284.26915 50.22713 49.21928 51.61876 49.83152 52.24500
284.27875 50.16540 49.22837 51.67880 49.80823 52.18007
284.28835 50.26442 49.22045 51.74240 49.86403 52.27596
284.29797 50.31897 49.35613 51.85776 50.04902 52.42140
284.30760 50.38123 49.39718 51.88695 49.98478 52.35818
284.31720 50.16105 49.22897 51.70993 49.84179 52.15336
284.32681 50.33832 49.40628 51.94870 50.05390 52.39736
284.33642 50.33938 49.38389 51.85020 50.00814 52.38507
284.34602 50.29750 49.34196 51.78345 49.94271 52.34571
284.35562 50.28884 49.36736 51.79310 49.97204 52.28385
284.36524 50.23422 49.23559 51.68258 49.84233 52.17580
284.37484 50.49487 49.56412 52.08444 50.19864 52.59839
284.38444 50.30654 49.42247 51.88761 50.01402 52.38714
284.39406 50.40609 49.45742 51.96784 50.06703 52.46168
284.40366 50.42173 49.49669 52.00931 50.17056 52.45855
284.41326 50.59829 49.63546 52.15357 50.19257 52.58984
284.42288 50.48090 49.58347 52.04953 50.13459 52.52160
284.43248 50.32794 49.32965 51.83955 49.99024 52.29621
284.44208 50.61034 49.64161 52.10975 50.28061 52.60433
284.45169 50.39927 49.41295 51.95355 50.05136 52.39670
284.46130 50.73364 49.79204 52.32687 50.47823 52.78083
284.47090 50.61555 49.59912 52.17196 50.22777 52.60562
284.48051 50.72134 49.74008 52.27404 50.38877 52.72515
284.49012 50.59895 49.65662 52.16625 50.22353 52.65869
284.49972 50.41932 49.50243 51.96074 50.07007 52.46667
284.50929 50.55993 49.66689 52.07105 50.18942 52.59054
284.51891 50.60988 49.69764 52.09374 50.23502 52.57348
284.52851 50.76147 49.80415 52.24671 50.37420 52.75424
284.53811 50.67732 49.70111 52.19619 50.34071 52.66115
284.54772 50.72471 49.75480 52.34432 50.35045 52.78711
284.55733 50.67817 49.75197 52.26618 50.30408 52.72796
284.56693 50.70448 49.71442 52.22747 50.23334 52.73630
284.57654 50.67241 49.75096 52.23394 50.33757 52.73663
284.58615 50.60369 49.73510 52.17441 50.24138 52.64264
284.59575 50.63256 49.71154 52.27485 50.31810 52.71345
284.60536 50.79714 49.81707 52.44652 50.42612 52.80764
284.61497 50.84135 49.84844 52.43296 50.44757 52.88666
284.62454 50.70604 49.75773 52.32033 50.32758 52.78799
284.63415 50.74090 49.79433 52.37937 50.38955 52.85546
284.64375 50.71815 49.74691 52.32569 50.27284 52.84903
284.65336 50.75693 49.73832 52.28463 50.35868 52.82294
284.66297 50.90281 49.83944 52.46934 50.47601 52.98537
284.67257 50.70633 49.71645 52.29109 50.28381 52.83568
284.68218 50.80314 49.86023 52.41297 50.40231 52.97320
284.69175 50.94134 49.98184 52.59096 50.54829 53.07871
284.70136 50.77717 49.82779 52.38242 50.39880 52.94435
284.71097 50.83113 49.88792 52.53778 50.48503 53.03023
284.72057 50.88546 49.84531 52.50129 50.45631 53.05473
284.73018 50.85386 49.82749 52.41622 50.46393 53.03774
284.73978 50.94933 49.93186 52.56789 50.56630 53.22470
284.74936 50.70187 49.74784 52.32812 50.33076 52.89704
284.75897 50.94945 49.89659 52.59913 50.54239 53.16360
284.76857 50.95060 49.94057 52.62133 50.55454 53.22700
284.77818 50.80157 49.74964 52.42588 50.35037 53.02007
284.78779 50.71639 49.69048 52.42361 50.36090 53.05608
284.79736 50.87885 49.89534 52.58813 50.46785 53.16196
284.80696 50.79343 49.68128 52.44742 50.36246 53.06216
284.81658 50.86485 49.85965 52.51472 50.44895 53.07269
284.82618 50.90027 49.84967 52.59600 50.48578 53.21364
284.83578 50.94363 49.85411 52.63825 50.56265 53.26662
284.84537 50.87387 49.84642 52.62687 50.47734 53.27070
284.85497 50.98057 49.86651 52.70043 50.51914 53.28174
284.86457 50.93516 49.82552 52.63935 50.48310 53.27837
284.87418 51.12031 50.00856 52.87224 50.65223 53.57762
284.88376 50.72056 49.64829 52.46109 50.35171 53.14628
284.89336 51.06703 49.96624 52.85827 50.66316 53.53355
284.90296 50.89885 49.80196 52.67586 50.48121 53.31731
284.91258 50.95589 49.87146 52.81186 50.52624 53.44602
284.92215 50.93211 49.78308 52.60683 50.46757 53.27680
284.93175 51.03922 49.93257 52.82808 50.61258 53.55578
284.94137 50.88741 49.70845 52.61386 50.43568 53.28686
284.95094 50.99443 49.75298 52.72678 50.50703 53.40477
284.96054 51.01388 49.79602 52.79172 50.54788 53.49790
284.97015 50.79508 49.62543 52.52245 50.29634 53.18252
284.97973 51.22121 50.02825 53.10016 50.78630 53.74424
284.98933 50.92211 49.70123 52.71348 50.47931 53.38975
284.99894 51.00254 49.75194 52.82491 50.51327 53.52042
285.00855 50.94216 49.70388 52.68594 50.39225 53.39999
285.01812 51.03596 49.76117 52.85794 50.52387 53.64926
285.02773 50.88537 49.62835 52.63126 50.45843 53.42107
285.03733 50.91184 49.68500 52.67609 50.45063 53.42051
285.04691 51.23999 49.93861 53.08937 50.70800 53.77948
285.05651 50.97215 49.75154 52.81370 50.41807 53.48068
285.06609 51.05578 49.85189 52.99760 50.50875 53.71592
285.07570 50.98475 49.67876 52.90120 50.49168 53.66655
285.08530 50.91674 49.62197 52.75447 50.39291 53.48148
285.09488 50.93123 49.60345 52.79562 50.38940 53.49787
285.10448 51.05888 49.66056 52.95415 50.50112 53.60922
285.11409 51.09546 49.76452 52.97212 50.54065 53.69151
285.12367 50.97759 49.64327 52.88402 50.45010 53.55660
285.13327 51.08983 49.70038 53.06405 50.57036 53.71327
285.14285 51.24432 49.79957 53.14171 50.67210 53.80211
285.15246 50.85339 49.52634 52.80135 50.33027 53.54125
285.16206 51.05964 49.74458 52.90371 50.59969 53.63439
285.17163 50.86695 49.56796 52.78675 50.29880 53.46578
285.18125 51.12563 49.73690 53.05049 50.51841 53.72152
285.19082 51.08761 49.66652 53.02527 50.47705 53.69352
285.20042 51.12504 49.65845 53.01323 50.47855 53.68067
285.21004 51.15479 49.73212 53.07192 50.59795 53.81855
285.21961 51.16554 49.71621 53.12411 50.51756 53.82121
285.22921 50.92873 49.52894 52.93978 50.33851 53.59482
285.23879 50.98491 49.52838 52.91591 50.36602 53.57260
285.24840 51.01560 49.56962 52.93558 50.42458 53.59227
285.25797 51.00485 49.54569 52.90585 50.42009 53.59487
285.26757 51.07406 49.59870 53.10522 50.48080 53.77638
285.27715 51.14414 49.59632 53.12798 50.53583 53.77403
285.28676 50.98483 49.49482 52.91002 50.39432 53.53509
285.29633 50.98266 49.51878 52.98048 50.35534 53.58279
285.30594 51.00931 49.53307 53.06184 50.38958 53.68491
285.31552 51.10056 49.61344 53.11154 50.46298 53.71567
285.32512 51.12110 49.58222 53.10511 50.47920 53.72939
285.33470 50.99918 49.51780 53.03781 50.36171 53.67359
285.34430 51.07864 49.51492 53.10235 50.38928 53.70047
285.35388 50.98063 49.49012 53.04029 50.30067 53.56732
285.36349 50.92582 49.42955 52.96887 50.24381 53.54439
285.37306 51.11115 49.62085 53.19747 50.48151 53.82031
285.38267 50.88445 49.35344 52.93551 50.21249 53.54826
285.39225 51.14711 49.55160 53.22476 50.40500 53.78639
285.40185 50.93646 49.36424 52.92434 50.22205 53.45097
285.41142 50.86526 49.24958 52.83064 50.11662 53.38236
285.42104 50.89831 49.28627 52.87303 50.18517 53.38314
285.43061 50.96690 49.33078 52.93000 50.25236 53.43456
285.44021 50.97708 49.29948 53.06062 50.26065 53.60314
285.44978 50.96873 49.36992 53.09523 50.22614 53.61015
285.45937 50.77150 49.21041 52.83577 50.02201 53.29375
285.46897 50.75043 49.16673 52.82951 50.04058 53.30555
285.47854 51.06062 49.44406 53.16286 50.27027 53.63335
285.48816 50.85396 49.28032 52.95974 50.08845 53.43280
285.49773 50.78039 49.23937 52.87501 50.05528 53.38111
285.50733 50.86320 49.29321 52.91495 50.06351 53.38284
285.51691 50.56494 49.00518 52.54269 49.88080 53.03534
285.52649 51.13501 49.43890 53.26979 50.32514 53.81197
285.53609 50.92143 49.21671 53.01526 50.06971 53.54881
285.54567 50.69409 49.06770 52.72867 49.86669 53.19704
285.55524 50.75090 49.08412 52.85685 49.87253 53.36860
285.56485 50.69419 49.03196 52.78711 49.79612 53.26429
285.57443 50.69529 49.02148 52.70625 49.81821 53.17816
285.58403 50.56040 48.89981 52.61181 49.68146 53.07454
285.59361 50.54624 48.91048 52.63122 49.71866 53.05725
285.60319 50.71368 48.98583 52.83386 49.79866 53.30903
285.61279 50.46773 48.79213 52.55878 49.56881 52.98639
285.62236 50.53725 48.77628 52.61391 49.57931 52.99532
285.63195 50.38124 48.71696 52.49118 49.49287 52.94313
285.64155 50.69312 49.06309 52.86509 49.78398 53.28590
285.65112 50.57863 48.78969 52.70068 49.60950 53.11462
285.66069 50.28221 48.58131 52.41038 49.32580 52.77342
285.67031 50.57110 48.83327 52.80515 49.58900 53.17656
285.67988 50.23609 48.51452 52.43192 49.25578 52.87865
285.68945 50.33798 48.68935 52.46384 49.42264 52.91980
285.69907 50.36632 48.61317 52.38059 49.37416 52.88131
285.70864 50.10845 48.37885 52.16608 49.09312 52.57086
285.71821 50.40445 48.62044 52.63169 49.44894 53.08643
285.72779 50.09293 48.30731 52.32323 49.07490 52.77521
285.73740 50.16564 48.48867 52.37475 49.13821 52.86276
285.74697 49.98666 48.24024 52.08280 48.97472 52.55649
285.75655 50.06626 48.28891 52.24417 49.05891 52.80452
285.76615 50.03776 48.22023 52.08815 49.02167 52.58222
285.77573 49.97589 48.17680 52.05153 48.91400 52.60802
285.78531 49.92905 48.17441 52.09453 48.87163 52.56019
285.79488 49.90259 48.11257 52.19192 48.81479 52.68952
285.80448 49.86548 48.05459 52.02611 48.79470 52.66926
285.81407 49.74442 47.97384 51.92528 48.61658 52.41416
285.82364 49.69568 47.89869 51.88738 48.55725 52.41423
285.83321 49.80348 48.06809 52.02334 48.74082 52.59816
285.84279 49.64329 47.81782 51.82144 48.48754 52.37122
285.85240 49.71415 47.92086 51.88614 48.60865 52.54037
285.86197 49.36551 47.63877 51.58247 48.26416 52.27082
285.87154 49.37651 47.53785 51.55441 48.25680 52.17389
285.88113 49.66180 47.70789 51.93189 48.45015 52.59352
285.89070 49.23522 47.41543 51.46324 48.08758 52.08857
285.90030 49.36168 47.45083 51.55018 48.14414 52.15789
285.90988 49.35155 47.38158 51.62582 48.13144 52.26290
285.91946 49.05959 47.15867 51.29746 47.87985 51.90126
285.92903 49.31049 47.35628 51.52649 47.97845 52.21370
285.93861 49.11453 47.24354 51.31328 47.85983 52.04188
285.94821 48.87148 47.03121 51.13511 47.64393 51.85295
285.95779 49.11112 47.16383 51.31530 47.75342 52.09262
285.96737 48.96355 47.00237 51.15792 47.61555 51.96403
285.97694 48.75316 46.81672 50.91528 47.44120 51.70163
285.98651 48.86877 46.97030 51.11004 47.56531 51.91572
285.99610 48.57486 46.64404 50.81802 47.25423 51.57402
286.00567 48.74059 46.67801 50.97763 47.27769 51.78188
286.01527 48.44313 46.49709 50.73805 47.09613 51.52346
286.02485 48.62316 46.59219 50.96263 47.21004 51.76327
286.03443 48.45130 46.40163 50.77470 47.00384 51.56603
286.04400 48.27807 46.21538 50.58473 46.79516 51.33408
286.05358 48.18612 46.14083 50.47105 46.68918 51.29815
286.06315 48.33665 46.20504 50.63200 46.76776 51.48232
286.07273 48.05283 45.92220 50.27472 46.49585 51.11062
286.08231 48.02796 45.90588 50.38254 46.52338 51.17687
286.09188 48.13349 45.97754 50.50314 46.53983 51.35339
286.10145 47.93690 45.77591 50.15535 46.33125 51.06383
286.11106 47.86473 45.77046 50.25043 46.22853 51.18024
286.12064 47.79240 45.55916 50.12916 46.19063 51.13063
286.13021 47.69062 45.48488 50.05821 46.01249 50.98611
286.13979 47.54489 45.27415 49.91981 45.88552 50.82711
286.14937 47.53702 45.30703 49.90461 45.86608 50.82944
286.15894 47.25947 45.03821 49.68007 45.53965 50.63944
286.16851 47.37754 45.05025 49.80412 45.55376 50.78497
286.17810 47.14162 44.83308 49.46229 45.37489 50.43428
286.18767 47.25614 44.90214 49.78670 45.44063 50.72025
286.19724 47.00267 44.66184 49.40542 45.23722 50.37372
286.20682 46.93268 44.55128 49.32612 45.09783 50.28050
286.21640 46.84851 44.48860 49.31413 44.93935 50.26142
286.22597 46.79718 44.39604 49.21247 44.87128 50.20411
286.23555 46.65001 44.20512 49.11561 44.73154 50.07857
286.24512 46.45955 44.04751 48.95442 44.52006 49.83409
286.25470 46.45059 43.95982 48.96920 44.48082 49.90444
286.26428 46.39378 43.91663 48.90311 44.37637 49.86814
286.27385 46.16060 43.65843 48.79896 44.19006 49.77158
286.28342 46.16364 43.60174 48.71960 44.18843 49.62898
286.29301 45.90484 43.40743 48.45666 43.91591 49.44020
286.30258 45.97312 43.39331 48.66128 43.86637 49.63761
286.31215 45.56490 43.03119 48.10510 43.57632 49.04794
286.32173 45.71610 43.04700 48.36300 43.52035 49.27837
286.33131 45.54619 42.83166 48.15299 43.33962 49.02703
286.34088 45.43465 42.65721 47.99756 43.18500 48.94303
286.35045 45.13974 42.54420 47.72961 42.96088 48.66976
286.36003 45.21426 42.38829 47.84389 42.88960 48.81381
286.36961 45.09701 42.29336 47.65816 42.77794 48.64258
286.37918 44.79346 42.13615 47.44946 42.57285 48.32941
286.38873 44.71494 41.92995 47.35795 42.40656 48.17794
286.39830 44.62297 41.81221 47.24536 42.21431 48.16057
286.40788 44.31082 41.62454 46.97797 42.07653 47.90022
286.41746 44.36439 41.41396 47.03549 41.97262 47.94601
286.42703 44.18786 41.26371 46.85083 41.76520 47.63183
286.43660 43.95305 41.17012 46.78084 41.65933 47.51297
286.44619 43.92596 40.99407 46.67299 41.46476 47.39244
286.45576 43.76843 40.76328 46.57097 41.30671 47.41830
286.46533 43.67407 40.73270 46.53096 41.14867 47.24453
286.47491 43.50639 40.48609 46.23442 40.92600 47.01282
286.48445 43.35385 40.36118 46.25156 40.85404 46.90828
286.49403 43.15507 40.13306 45.96782 40.52683 46.61484
286.50361 42.99483 39.97677 45.91241 40.35610 46.58465
286.51318 42.88644 39.80347 45.66664 40.15648 46.33348
286.52276 42.62063 39.60574 45.60384 40.08297 46.26554
286.53234 42.55187 39.38628 45.45938 39.84623 46.03820
286.54188 42.36548 39.29543 45.28368 39.64556 45.80606
286.55145 42.20785 39.04909 45.10961 39.47584 45.62709
286.56103 42.02918 38.89988 45.01636 39.29104 45.58920
286.57061 41.76561 38.68071 44.75685 39.04539 45.11635
286.58018 41.66706 38.49421 44.68496 38.86344 45.10712
286.58975 41.45373 38.27975 44.43094 38.67878 44.92326
286.59930 41.35051 38.07497 44.31604 38.51137 44.89335
286.60888 41.15953 37.82439 44.23240 38.26006 44.58480
286.61845 40.99647 37.66793 43.97919 38.11504 44.37672
286.62803 40.77063 37.49084 43.87063 37.86878 44.20972
286.63760 40.54968 37.25080 43.61631 37.74220 43.98475
286.64715 40.42316 37.06858 43.47076 37.49468 43.76579
286.65673 40.19241 36.86669 43.25899 37.25329 43.61299
286.66630 39.96199 36.63392 43.04241 37.00623 43.30810
286.67587 39.75048 36.37920 42.86590 36.81308 43.12345
286.68543 39.60725 36.19362 42.73642 36.60320 43.00483
286.69500 39.41884 36.00075 42.56463 36.44302 42.71896
286.70457 39.24177 35.84973 42.38925 36.21105 42.56970
286.71415 39.00156 35.59191 42.23020 35.95735 42.32241
286.72370 38.80761 35.28801 42.00231 35.74779 42.09011
286.73327 38.66955 35.22443 41.90480 35.57196 41.89545
286.74285 38.46085 34.91532 41.69963 35.27731 41.67711
286.75242 38.19180 34.75498 41.43185 35.15795 41.43441
286.76196 37.97953 34.51474 41.23701 34.81543 41.20060
286.77155 37.72120 34.23590 40.98867 34.65444 40.93518
286.78112 37.56760 34.12662 40.91704 34.34307 40.74079
286.79066 37.34977 33.82604 40.61179 34.25057 40.53549
286.80024 37.10407 33.58142 40.40599 33.89874 40.26661
286.80982 36.91867 33.39793 40.18453 33.63467 40.03683
286.81936 36.65975 33.12683 40.00967 33.44677 39.81145
286.82893 36.43467 32.83361 39.73221 33.17703 39.58660
286.83851 36.22569 32.67379 39.59867 32.98817 39.42103
286.84806 35.98888 32.41072 39.36098 32.70731 39.08766
286.85763 35.76337 32.20747 39.14485 32.57106 38.89164
286.86721 35.52914 31.99584 38.93116 32.25209 38.58318
286.87675 35.31654 31.78169 38.70034 32.05273 38.37391
286.88633 35.01223 31.50301 38.45398 31.84206 38.14991
286.89591 34.84274 31.32879 38.23358 31.61771 37.95958
286.90545 34.59123 31.09640 38.06574 31.39209 37.67798
286.91502 34.34467 30.84221 37.81422 31.12301 37.43968
286.92461 34.17107 30.55352 37.56232 30.79747 37.15337
286.93415 33.87717 30.33981 37.34904 30.58358 36.95530
286.94372 33.67532 30.13859 37.15414 30.39734 36.71654
286.95327 33.50187 29.89947 36.91256 30.15227 36.37199
286.96284 33.19988 29.63642 36.65086 29.87510 36.18976
286.97242 32.87025 29.37010 36.41461 29.64601 35.91730
286.98197 32.71126 29.13367 36.29256 29.45835 35.71490
286.99154 32.42297 28.90093 35.90758 29.17565 35.52675
287.00108 32.20753 28.67405 35.76404 28.98407 35.25790
287.01067 32.01868 28.47044 35.55662 28.63037 35.02859
287.02024 31.75634 28.25671 35.29490 28.52015 34.82478
287.02978 31.55563 28.05764 35.09007 28.28173 34.50728
287.03936 31.25891 27.80773 34.80470 28.02506 34.22668
287.04890 30.97587 27.51840 34.55204 27.79124 33.99647
287.05848 30.76743 27.31407 34.38796 27.56790 33.79609
287.06803 30.52574 27.13877 34.11690 27.32434 33.51837
287.07760 30.32679 26.89726 33.88261 27.07483 33.36618
287.08714 30.03581 26.64796 33.58619 26.85865 33.07140
287.09672 29.86933 26.38256 33.40933 26.59629 32.85739
287.10630 29.53348 26.17404 33.10665 26.33662 32.57024
287.11584 29.41327 25.99117 32.89711 26.17847 32.32574
287.12541 29.15443 25.80771 32.64930 25.93903 32.09938
287.13497 28.94823 25.57603 32.51342 25.74963 31.90108
287.14454 28.69927 25.28855 32.25839 25.53478 31.69712
287.15408 28.43427 25.04941 31.94889 25.25277 31.37664
287.16366 28.19411 24.83708 31.77495 25.03643 31.17980
287.17320 28.00458 24.61954 31.54284 24.83272 30.96943
287.18278 27.71299 24.37988 31.32549 24.57554 30.71728
287.19233 27.49502 24.19878 31.05030 24.38353 30.48916
287.20187 27.29873 23.99608 30.88729 24.09961 30.27342
287.21144 27.05422 23.74682 30.61594 23.99468 30.09195
287.22100 26.86702 23.51957 30.42414 23.76851 29.85504
287.23057 26.53832 23.30243 30.12935 23.46585 29.57277
287.24011 26.33917 23.13563 29.92815 23.32997 29.33580
287.24969 26.06289 22.88822 29.70462 23.09360 29.10225
287.25923 25.89859 22.67522 29.43738 22.84061 28.88944
287.26881 25.66055 22.46069 29.22648 22.60099 28.63263
287.27836 25.43332 22.29958 28.99834 22.38527 28.43368
287.28790 25.23833 22.06133 28.78390 22.22231 28.23366
287.29747 25.06833 21.89962 28.57070 22.07841 28.06028
287.30703 24.77858 21.66636 28.37181 21.81711 27.81826
287.31660 24.56201 21.44082 28.15684 21.64844 27.62887
287.32614 24.36824 21.24291 27.82831 21.38783 27.34457
287.33569 24.13305 21.05347 27.67343 21.23573 27.18259
287.34526 23.88887 20.89314 27.44760 21.01257 26.96286
287.35481 23.70615 20.69600 27.24455 20.82909 26.74998
287.36439 23.50764 20.48770 27.02571 20.61234 26.53496
287.37393 23.33492 20.32212 26.83882 20.44234 26.32237
287.38347 23.07484 20.11391 26.55603 20.19238 26.06888
287.39305 22.88988 19.84423 26.37050 20.03345 25.88310
287.40260 22.66848 19.70487 26.16534 19.82219 25.65165
287.41214 22.42702 19.52769 25.99748 19.66539 25.52099
287.42171 22.25509 19.33037 25.74310 19.47331 25.33282
287.43126 22.07145 19.18799 25.55609 19.32667 25.15018
287.44081 21.87234 18.96050 25.30868 19.05869 24.88480
287.45038 21.67364 18.80600 25.12060 18.93613 24.70605
287.45993 21.44433 18.56550 24.85728 18.71139 24.50039
287.46947 21.24854 18.42269 24.69676 18.52206 24.32301
287.47905 21.03468 18.23299 24.43539 18.36109 24.12078
287.48860 20.92070 18.06647 24.29976 18.23562 23.93279
287.49814 20.66758 17.89152 24.02513 18.03065 23.71382
287.50771 20.52233 17.72361 23.91128 17.86548 23.49503
287.51726 20.34253 17.59688 23.65337 17.66861 23.37466
287.52681 20.12891 17.34739 23.52536 17.44143 23.12222
287.53638 19.91040 17.24680 23.34203 17.37426 22.99111
287.54593 19.73342 17.07390 23.08125 17.17211 22.75346
287.55547 19.55123 16.89038 22.92586 17.02180 22.58540
287.56501 19.40604 16.73533 22.73025 16.82663 22.42756
287.57460 19.17532 16.52537 22.48970 16.63948 22.17046
287.58414 19.05979 16.40592 22.33004 16.50320 22.07546
287.59368 18.82975 16.23226 22.11440 16.32734 21.83082
287.60323 18.67950 16.07892 21.98182 16.18149 21.66583
287.61281 18.48502 15.92306 21.72356 16.04381 21.49197
287.62235 18.30462 15.77779 21.53866 15.85289 21.31667
287.63190 18.16769 15.60986 21.35487 15.68414 21.11798
287.64144 17.99058 15.43520 21.12516 15.52450 20.96558
287.65101 17.87143 15.33991 21.01274 15.39915 20.83005
287.66057 17.64757 15.16994 20.80935 15.30586 20.59180
287.67011 17.49737 14.95158 20.62561 15.08909 20.44947
287.67965 17.33829 14.84672 20.43810 14.95523 20.31337
287.68919 17.18160 14.68542 20.26990 14.80110 20.05852
287.69877 16.97579 14.54859 20.08266 14.65771 19.90108
287.70832 16.78810 14.39556 19.90144 14.49859 19.71948
287.71786 16.67878 14.27295 19.78639 14.35378 19.61478
287.72741 16.51420 14.12541 19.51625 14.22161 19.39684
287.73695 16.34753 13.95477 19.37361 14.02458 19.25351
287.74649 16.20555 13.83027 19.17796 13.89801 19.06576
287.75608 16.04456 13.67932 19.02323 13.80374 18.88600
287.76562 15.92763 13.60896 18.86342 13.63647 18.69590
287.77516 15.72483 13.44926 18.69826 13.52607 18.50973
287.78471 15.61974 13.28606 18.52781 13.39281 18.41203
287.79425 15.41715 13.10347 18.30658 13.21124 18.20004
287.80380 15.28702 13.01313 18.18203 13.06176 18.02335
287.81335 15.15138 12.86152 18.00406 12.98204 17.91833
287.82292 14.96351 12.76078 17.91053 12.84793 17.69162
287.83246 14.83203 12.60920 17.71280 12.70495 17.56239
287.84202 14.71525 12.46515 17.55216 12.56797 17.37701
287.85156 14.56454 12.36106 17.34549 12.44696 17.30557
287.86110 14.40063 12.23409 17.15907 12.29977 17.08977
287.87065 14.25252 12.04332 17.02106 12.17954 16.94110
287.88019 14.08417 11.97338 16.84044 12.04479 16.77183
287.88974 13.97138 11.86895 16.70486 11.90715 16.61574
287.89929 13.85422 11.69273 16.49665 11.77768 16.43922
287.90883 13.68597 11.59564 16.36669 11.65124 16.28789
287.91837 13.55407 11.50049 16.23437 11.54575 16.13826
287.92795 13.45153 11.35146 16.05569 11.41437 15.95632
287.93750 13.24772 11.25280 15.91474 11.28419 15.79199
287.94704 13.15734 11.08998 15.76727 11.18242 15.62781
287.95659 12.97708 10.99439 15.64008 11.04703 15.48015
287.96613 12.86234 10.87565 15.41757 10.93283 15.34469
287.97567 12.72622 10.74133 15.25475 10.79057 15.19381
287.98523 12.58472 10.61718 15.11758 10.65395 15.02343
287.99477 12.46665 10.52856 14.95613 10.59312 14.81537
288.00431 12.33487 10.41425 14.79426 10.46410 14.75478
288.01385 12.20407 10.28093 14.66874 10.35617 14.56988
288.02340 12.07095 10.18125 14.49788 10.23934 14.41495
288.03295 11.95299 10.04377 14.32778 10.13448 14.23225
288.04249 11.81970 9.92415 14.22115 9.97356 14.11503
288.05204 11.71980 9.82065 14.06229 9.88758 13.96900
288.06158 11.58475 9.76067 13.91961 9.80747 13.81188
288.07112 11.42502 9.59398 13.73861 9.63052 13.63142
288.08068 11.33547 9.51109 13.63396 9.54208 13.46855
288.09022 11.22131 9.39624 13.45191 9.40629 13.35023
288.09976 11.08876 9.28909 13.33174 9.29990 13.23042
288.10931 10.95407 9.18942 13.19451 9.21303 13.06366
288.11885 10.80916 9.05305 13.03649 9.12290 12.96183
288.12840 10.69849 8.97451 12.85879 8.99785 12.79238
288.13795 10.60222 8.84995 12.72878 8.89790 12.63208
288.14746 10.48097 8.74779 12.57934 8.77789 12.47259
288.15700 10.34773 8.65136 12.41575 8.66629 12.35925
288.16655 10.21782 8.52037 12.29589 8.56037 12.16578
288.17610 10.13169 8.43884 12.15698 8.44045 12.04684
288.18564 9.97081 8.36080 12.00520 8.35358 11.89118
288.19519 9.87750 8.26804 11.88044 8.26284 11.77247
288.20473 9.77865 8.14151 11.70571 8.16859 11.61531
288.21427 9.65287 8.02638 11.61178 8.05765 11.43924
288.22383 9.51882 7.93981 11.45458 7.96475 11.31996
288.23337 9.38922 7.81208 11.30264 7.84630 11.18245
288.24291 9.28516 7.75526 11.18015 7.75405 11.07883
288.25243 9.18814 7.64697 11.02867 7.65140 10.88545
288.26197 9.05030 7.53593 10.88658 7.55287 10.78210
288.27152 8.93518 7.44296 10.75969 7.46759 10.65229
288.28107 8.84435 7.33847 10.63364 7.36661 10.53154
288.29061 8.74517 7.26157 10.47377 7.26037 10.37601
288.30015 8.61010 7.16502 10.33760 7.19442 10.23989
288.30970 8.55461 7.06378 10.23985 7.05698 10.10585
288.31921 8.39107 6.96271 10.10277 6.98968 9.98646
288.32876 8.31288 6.89973 9.96829 6.88723 9.83971
288.33831 8.20960 6.79746 9.86684 6.80794 9.70640
288.34785 8.09071 6.73147 9.73980 6.69890 9.60432
288.35739 8.01467 6.63283 9.58395 6.62127 9.45234
288.36693 7.88052 6.52144 9.49651 6.51827 9.30938
288.37646 7.78615 6.43692 9.36329 6.43810 9.19464
288.38600 7.69082 6.34755 9.23176 6.36300 9.09787
288.39554 7.58894 6.25824 9.08474 6.23720 8.93472
288.40509 7.50319 6.18563 8.97003 6.17933 8.83965
288.41463 7.38609 6.09562 8.85061 6.07014 8.72400
288.42415 7.25595 6.01476 8.70792 5.98964 8.57446
288.43370 7.15475 5.93553 8.57730 5.90649 8.43874
288.44324 7.09298 5.84819 8.48516 5.82579 8.35192
288.45278 6.97585 5.78986 8.37918 5.75377 8.25089
288.46230 6.88431 5.70933 8.26337 5.66136 8.09074
288.47184 6.80826 5.60843 8.17853 5.61159 8.00255
288.48139 6.68905 5.53961 7.99270 5.50956 7.86103
288.49094 6.61785 5.46296 7.92258 5.44128 7.76525
288.50045 6.52403 5.37080 7.79877 5.35739 7.67015
288.50999 6.43225 5.31351 7.71449 5.25755 7.53828
288.51954 6.31756 5.24708 7.58731 5.20683 7.44013
288.52909 6.23575 5.15350 7.47289 5.13786 7.33091
288.53860 6.17041 5.06852 7.37883 5.04014 7.23847
288.54815 6.08815 5.01146 7.24908 4.97714 7.12118
288.55769 5.98812 4.92070 7.15173 4.91757 7.00941
288.56720 5.88986 4.84845 7.02013 4.83092 6.91100
288.57676 5.80577 4.78250 6.93114 4.74757 6.82206
288.58630 5.71680 4.72761 6.83499 4.66428 6.66520
288.59581 5.64418 4.66275 6.74219 4.60660 6.58456
288.60536 5.56901 4.58622 6.61149 4.53731 6.47516
288.61490 5.48177 4.52538 6.52919 4.47545 6.36903
288.62441 5.40562 4.44568 6.43576 4.42909 6.28303
288.63397 5.31838 4.39178 6.34682 4.37281 6.19039
288.64351 5.24175 4.33082 6.24168 4.28807 6.09361
288.65302 5.13887 4.24754 6.15091 4.21288 6.00839
288.66257 5.08433 4.19317 6.06657 4.17449 5.92569
288.67211 5.00475 4.11868 5.97607 4.08550 5.82717
288.68163 4.94394 4.06268 5.88383 4.03221 5.77198
288.69118 4.87959 4.00319 5.81071 3.96825 5.65973
288.70072 4.78314 3.93149 5.71279 3.90614 5.58293
288.71023 4.71441 3.88409 5.60480 3.85386 5.47805
288.71978 4.62758 3.83063 5.54613 3.78223 5.39665
288.72929 4.58803 3.76027 5.45944 3.73362 5.32271
288.73884 4.48937 3.71143 5.35971 3.69287 5.22439
288.74839 4.43701 3.66411 5.28239 3.62341 5.14867
288.75790 4.36566 3.60008 5.18309 3.56371 5.05349
288.76744 4.31348 3.53643 5.12593 3.50026 5.02248
288.77695 4.24812 3.48290 5.01688 3.47819 4.90795
288.78651 4.18073 3.42174 4.95863 3.39376 4.84474
288.79605 4.10827 3.38734 4.87567 3.34678 4.77881
288.80556 4.04620 3.32817 4.80037 3.30382 4.69982
288.81511 4.00079 3.28601 4.73834 3.27108 4.62916
288.82462 3.91238 3.25869 4.66208 3.19898 4.54578
288.83416 3.86826 3.20076 4.59465 3.15427 4.47339
288.84369 3.81822 3.14674 4.52532 3.12621 4.40993
288.85323 3.75474 3.09493 4.46346 3.05689 4.35284
288.86274 3.71744 3.04218 4.38492 3.01843 4.28834
288.87229 3.63781 3.00625 4.32209 2.97539 4.19750
288.88180 3.57601 2.95425 4.24629 2.93625 4.13868
288.89134 3.52949 2.91294 4.19725 2.86921 4.06016
288.90087 3.47927 2.86885 4.12420 2.83553 3.99886
288.91041 3.41336 2.81509 4.04776 2.78333 3.93819
288.91992 3.36415 2.76314 3.99436 2.75914 3.88919
288.92947 3.31962 2.73971 3.92711 2.70054 3.83918
288.93898 3.27900 2.70815 3.88875 2.68394 3.78276
288.94853 3.22565 2.66580 3.82261 2.64211 3.72825
288.95805 3.17146 2.62248 3.77455 2.58338 3.65923
288.96759 3.12417 2.57333 3.67738 2.55585 3.59074
288.97710 3.08320 2.54421 3.62377 2.50594 3.52570
288.98665 3.03119 2.52592 3.58882 2.47196 3.49888
288.99616 2.97697 2.46757 3.53708 2.44601 3.42809
289.00571 2.93279 2.44075 3.48480 2.39468 3.37360
289.01523 2.89646 2.39167 3.42048 2.37322 3.32314
289.02477 2.84739 2.36347 3.38363 2.31775 3.28289
289.03428 2.80449 2.33502 3.34141 2.28299 3.23966
289.04380 2.75673 2.28320 3.26165 2.25065 3.17292
289.05334 2.70741 2.25792 3.22305 2.22387 3.13911
289.06286 2.66935 2.21336 3.16458 2.18335 3.08839
289.07241 2.64820 2.19881 3.13070 2.16569 3.04714
289.08192 2.59159 2.16482 3.08646 2.14857 3.01256
289.09143 2.56236 2.12671 3.03212 2.09609 2.96700
289.10098 2.52929 2.09706 2.97582 2.08161 2.91093
289.11049 2.48487 2.05898 2.95838 2.04194 2.87514
289.12004 2.45546 2.04603 2.90425 2.00902 2.82984
289.12956 2.41721 2.00650 2.86755 1.97472 2.77693
289.13907 2.37185 1.98606 2.82305 1.96518 2.76039
289.14861 2.35385 1.95997 2.77764 1.94069 2.70249
289.15813 2.30427 1.92992 2.74148 1.89456 2.65074
289.16764 2.27743 1.90415 2.68966 1.88584 2.62927
289.17719 2.22253 1.88959 2.66811 1.85398 2.59185
289.18671 2.20245 1.84617 2.62467 1.82882 2.56220
289.19622 2.17696 1.81917 2.59323 1.80910 2.51230
289.20576 2.13825 1.78672 2.53633 1.76577 2.46998
289.21528 2.11984 1.78569 2.50857 1.74969 2.44546
289.22479 2.09203 1.74490 2.46681 1.72378 2.41190
289.23434 2.04484 1.72426 2.42381 1.69793 2.37076
289.24385 2.02879 1.69770 2.39645 1.67218 2.34692
289.25337 2.00008 1.66314 2.37223 1.64042 2.29500
289.26291 1.98129 1.66160 2.34600 1.64042 2.29076
289.27242 1.94618 1.62011 2.30558 1.61822 2.24044
289.28194 1.92457 1.60672 2.26786 1.59950 2.21584
289.29149 1.89020 1.58640 2.25914 1.56822 2.18452
289.30100 1.87225 1.56160 2.19355 1.54409 2.15510
289.31052 1.84169 1.54740 2.17415 1.52145 2.11384
289.32003 1.80924 1.52395 2.16157 1.50643 2.09910
289.32957 1.78777 1.49458 2.12825 1.49343 2.07029
289.33909 1.76546 1.48863 2.10215 1.47338 2.04534
289.34861 1.73425 1.47301 2.06518 1.45892 2.01948
289.35812 1.71945 1.44860 2.03232 1.42836 1.98610
289.36767 1.69107 1.42348 2.01287 1.41203 1.96554
289.37718 1.67479 1.40595 1.98252 1.38650 1.94019
289.38669 1.65174 1.40606 1.96275 1.37396 1.91270
289.39621 1.63786 1.38365 1.93788 1.36839 1.87566
289.40576 1.61488 1.36185 1.91378 1.33968 1.85759
289.41527 1.59049 1.34259 1.89127 1.32803 1.83533
289.42479 1.58758 1.33742 1.86661 1.31471 1.82158
289.43430 1.55972 1.32225 1.85115 1.29951 1.79371
289.44381 1.53663 1.28909 1.80372 1.27491 1.77230
289.45336 1.51582 1.28543 1.78130 1.25873 1.74354
289.46287 1.48936 1.26974 1.77249 1.24933 1.73053
289.47239 1.47047 1.24781 1.74513 1.23463 1.69314
289.48191 1.44764 1.23745 1.72538 1.21944 1.69798
289.49142 1.43934 1.21920 1.70172 1.20649 1.67145
289.50093 1.42471 1.20717 1.68771 1.19627 1.64713
289.51048 1.40014 1.19275 1.66737 1.18071 1.62973
289.51999 1.39796 1.18257 1.64174 1.16478 1.60389
289.52951 1.36415 1.16366 1.61712 1.14554 1.58465
289.53903 1.35402 1.14638 1.60764 1.12226 1.55865
289.54854 1.33671 1.12831 1.57903 1.12492 1.54134
289.55805 1.32718 1.12384 1.57187 1.11369 1.53879
289.56757 1.30943 1.10256 1.55266 1.09919 1.50506
289.57708 1.29470 1.10743 1.54966 1.09014 1.48987
289.58663 1.27732 1.06970 1.50262 1.06970 1.47516
289.59615 1.26150 1.07556 1.50450 1.06158 1.45235
289.60566 1.24305 1.06758 1.47941 1.04337 1.44650
289.61517 1.23373 1.04390 1.46562 1.03670 1.43455
289.62469 1.21907 1.03943 1.44693 1.01969 1.41161
289.63420 1.20379 1.01535 1.43886 1.01649 1.40512
289.64371 1.18996 1.02424 1.42128 1.00832 1.39397
289.65324 1.19055 1.00797 1.39321 0.99547 1.36821
289.66275 1.16074 1.00750 1.38755 0.98081 1.35820
289.67226 1.15287 0.99394 1.38130 0.98011 1.35673
289.68178 1.14485 0.97970 1.36504 0.96276 1.33694
289.69129 1.13985 0.96562 1.34916 0.95714 1.31254
289.70083 1.11671 0.95697 1.33785 0.95773 1.30315
289.71035 1.11050 0.94694 1.32518 0.93823 1.29565
289.71987 1.09421 0.94357 1.31600 0.92427 1.28686
289.72938 1.07814 0.92418 1.29544 0.91925 1.26472
289.73890 1.06841 0.90465 1.27186 0.90580 1.24666
289.74841 1.06008 0.91730 1.26541 0.91270 1.24584
289.75792 1.05141 0.88930 1.25519 0.88701 1.22958
289.76744 1.03361 0.88541 1.24246 0.89110 1.21214
289.77696 1.02750 0.87705 1.23866 0.87064 1.20585
289.78647 1.01451 0.87059 1.21050 0.86427 1.17926
289.79598 1.00167 0.85491 1.20416 0.85454 1.18113
289.80550 1.00215 0.85888 1.19901 0.85256 1.16068
289.81501 1.00167 0.85682 1.19506 0.84823 1.15847
289.82452 0.97896 0.84075 1.18887 0.83109 1.15431
289.83404 0.97660 0.83517 1.17274 0.83331 1.13962
289.84356 0.95912 0.83333 1.15564 0.81583 1.12921
289.85307 0.95759 0.82127 1.14762 0.81719 1.11688
289.86256 0.93560 0.80290 1.12856 0.80364 1.11119
289.87207 0.92841 0.80501 1.12938 0.78950 1.09872
289.88158 0.93130 0.79427 1.10967 0.79948 1.09887
289.89110 0.91056 0.78732 1.10915 0.78435 1.08391
289.90061 0.90971 0.78151 1.10648 0.78151 1.06623
289.91013 0.89696 0.78858 1.08420 0.77849 1.06365
289.91965 0.89951 0.77497 1.07693 0.76747 1.06043
289.92916 0.89382 0.77329 1.07311 0.76839 1.04335
289.93867 0.88166 0.76191 1.07582 0.75436 1.04824
289.94819 0.85833 0.75439 1.04503 0.74759 1.03332
289.95770 0.86965 0.74827 1.04433 0.74298 1.02694
289.96721 0.85513 0.74513 1.04010 0.74174 1.00883
289.97671 0.85119 0.73111 1.02113 0.72922 1.00791
289.98622 0.83986 0.72551 1.01745 0.72627 1.00004
289.99573 0.84102 0.73270 1.01366 0.71840 0.99523
290.00525 0.82579 0.71261 1.00599 0.71559 0.98701
290.01476 0.82911 0.71747 1.01257 0.71747 0.97610
290.02427 0.82015 0.71474 0.99734 0.70427 0.97865
290.03379 0.81591 0.69502 0.98845 0.70887 0.97984
290.04331 0.80480 0.69643 0.97947 0.69084 0.97128
290.05279 0.79457 0.69324 0.97218 0.68950 0.95536
290.06231 0.79190 0.68664 0.95485 0.69114 0.95523
290.07182 0.79564 0.68843 0.96154 0.67827 0.94273
290.08133 0.77443 0.68090 0.94877 0.67155 0.94840
290.09085 0.77072 0.66896 0.94844 0.66334 0.92524
290.10033 0.76852 0.65641 0.93876 0.65755 0.92630
290.10985 0.76279 0.65891 0.93036 0.65929 0.92354
290.11937 0.76626 0.66101 0.93587 0.65912 0.93095
290.12888 0.76056 0.64853 0.93200 0.64890 0.92222
290.13839 0.75352 0.65134 0.92480 0.65736 0.91316
290.14788 0.75034 0.64813 0.91359 0.64700 0.91397
290.15739 0.73331 0.64688 0.90915 0.63828 0.89531
290.16690 0.73333 0.63180 0.90332 0.64797 0.89542
290.17643 0.73208 0.63589 0.89986 0.63626 0.88319
290.18594 0.72871 0.63391 0.90498 0.63048 0.88442
290.19542 0.73051 0.63050 0.89517 0.63734 0.88186
290.20494 0.71304 0.61431 0.87985 0.61355 0.88326
290.21445 0.71346 0.61674 0.88555 0.62798 0.87730
290.22396 0.70442 0.62245 0.87211 0.61497 0.86799
290.23345 0.70683 0.61428 0.87141 0.61167 0.85798
290.24296 0.70214 0.60777 0.86691 0.60927 0.86017
290.25248 0.69426 0.60512 0.86274 0.60550 0.86312
290.26197 0.69638 0.59749 0.85415 0.60240 0.85528
290.27148 0.69034 0.58666 0.85511 0.59684 0.85096
290.28099 0.69509 0.59590 0.85750 0.60044 0.84728
290.29051 0.68441 0.58126 0.85043 0.58991 0.84892
290.29999 0.67679 0.58905 0.83915 0.58830 0.84327
290.30950 0.67738 0.58952 0.83171 0.58689 0.84673
290.31903 0.67924 0.56923 0.83708 0.57526 0.83068
290.32851 0.66925 0.57413 0.82930 0.57337 0.82779
290.33802 0.65957 0.56251 0.82746 0.56588 0.82746
290.34754 0.66125 0.57020 0.81687 0.57356 0.82321
290.35702 0.65162 0.56444 0.82449 0.56667 0.82188
290.36653 0.65168 0.56310 0.81394 0.56161 0.81618
290.37605 0.65247 0.55868 0.81336 0.55757 0.81596
290.38553 0.64659 0.55618 0.80221 0.55988 0.81407
290.39505 0.63988 0.55486 0.79910 0.55821 0.80432
290.40457 0.62934 0.54210 0.79637 0.55627 0.80793
290.41405 0.63202 0.55190 0.79896 0.54034 0.81014
290.42356 0.63436 0.54581 0.78814 0.55544 0.80555
290.43305 0.62894 0.53956 0.79298 0.54802 0.80511
290.44256 0.62783 0.54024 0.79423 0.53694 0.79606
290.45207 0.62434 0.53615 0.78897 0.54350 0.79669
290.46156 0.62691 0.53386 0.77579 0.54116 0.79404
290.47108 0.62037 0.53387 0.78536 0.53932 0.78718
290.48056 0.61174 0.52925 0.77635 0.53582 0.78256
290.49008 0.60979 0.51443 0.77529 0.51918 0.77712
290.49959 0.60562 0.52224 0.77604 0.52334 0.78555
290.50907 0.60002 0.50737 0.75394 0.51941 0.77291
290.51859 0.59895 0.51694 0.76663 0.52097 0.76333
290.52807 0.60068 0.51907 0.75985 0.52458 0.76537
290.53758 0.59754 0.51887 0.76513 0.51594 0.76915
290.54708 0.59683 0.50138 0.76030 0.51089 0.76798
290.55659 0.59504 0.50132 0.74463 0.51455 0.76411
290.56610 0.58663 0.50658 0.75080 0.50695 0.75932
290.57559 0.58106 0.49944 0.74692 0.50801 0.73835
290.58510 0.58436 0.50147 0.75164 0.50744 0.75575
290.59458 0.58486 0.49903 0.74060 0.50347 0.74985
290.60409 0.58028 0.49078 0.72847 0.49298 0.74020
290.61358 0.57617 0.49354 0.72898 0.49757 0.73812
290.62310 0.57790 0.48250 0.73273 0.48433 0.73824
290.63258 0.57271 0.48752 0.72096 0.48752 0.73866
290.64210 0.56936 0.48912 0.73021 0.49682 0.73130
290.65158 0.56533 0.47790 0.72378 0.48883 0.73106
290.66109 0.56318 0.46835 0.71091 0.47528 0.71456
290.67058 0.56511 0.47196 0.71488 0.47890 0.71232
290.68009 0.55889 0.46434 0.71294 0.47164 0.70893
290.68957 0.54240 0.46928 0.70537 0.46673 0.70246
290.69910 0.55360 0.45957 0.69027 0.47123 0.70776
290.70858 0.54278 0.45754 0.69396 0.46446 0.70233
290.71806 0.54219 0.45518 0.68368 0.46286 0.68587
290.72758 0.54165 0.45065 0.68653 0.46048 0.69454
290.73706 0.53654 0.44748 0.68034 0.45733 0.68071
290.74657 0.52839 0.44069 0.66762 0.44398 0.67785
290.75606 0.51974 0.43786 0.66740 0.44371 0.66776
290.76557 0.52444 0.44132 0.67070 0.44858 0.67070
290.77506 0.51420 0.43764 0.65536 0.43110 0.66661
290.78455 0.51782 0.43296 0.65271 0.43260 0.65960
290.79406 0.51098 0.42612 0.65205 0.42684 0.64008
290.80354 0.50472 0.41758 0.64825 0.42445 0.64463
290.81306 0.50494 0.41812 0.63172 0.42248 0.63063
290.82254 0.50154 0.41105 0.62977 0.41728 0.63563
290.83202 0.49520 0.40590 0.62361 0.41218 0.61771
290.84154 0.48914 0.40922 0.62418 0.40626 0.62455
290.85102 0.48202 0.39866 0.60651 0.40014 0.61355
290.86054 0.48496 0.40272 0.60961 0.40014 0.59707
290.87003 0.48581 0.39688 0.60561 0.40460 0.59569
290.87951 0.47259 0.38829 0.58608 0.38938 0.58827
290.88902 0.47225 0.39123 0.59049 0.39269 0.58246
290.89851 0.46907 0.38171 0.57514 0.38759 0.57404
290.90799 0.46318 0.37783 0.57281 0.38519 0.56251
290.91750 0.45825 0.37035 0.56564 0.37330 0.55020
290.92699 0.44957 0.37109 0.56434 0.37696 0.55554
290.93647 0.44181 0.35812 0.54668 0.37128 0.54193
290.94599 0.43850 0.35789 0.54912 0.36259 0.53032
290.95548 0.43453 0.34819 0.53125 0.35285 0.51477
290.96496 0.42167 0.35097 0.52144 0.35026 0.51390
290.97444 0.42262 0.34178 0.51320 0.34647 0.50490
290.98396 0.41806 0.33913 0.50888 0.34021 0.48978
290.99344 0.41600 0.34392 0.50924 0.34320 0.49382
291.00292 0.41485 0.33267 0.49204 0.33696 0.48382
291.01244 0.40201 0.33542 0.48950 0.32586 0.46860
291.02192 0.40150 0.32946 0.47848 0.32805 0.46188
291.03141 0.39056 0.32183 0.46388 0.31971 0.45895
291.04090 0.38194 0.30907 0.45762 0.31471 0.44178
291.05041 0.38272 0.30752 0.45508 0.31036 0.43947
291.05989 0.37607 0.30248 0.44647 0.30319 0.43196
291.06938 0.36718 0.29502 0.44288 0.29396 0.41989
291.07886 0.35795 0.30024 0.43088 0.29316 0.41247
291.08837 0.35986 0.28292 0.42246 0.28362 0.39728
291.09786 0.35354 0.28373 0.41501 0.28755 0.40112
291.10734 0.33661 0.27937 0.40654 0.27765 0.38255
291.11683 0.33854 0.27585 0.39039 0.27856 0.37243
291.12635 0.33689 0.27127 0.38729 0.27161 0.36700
291.13583 0.32235 0.26666 0.37163 0.25957 0.36117
291.14531 0.32777 0.26289 0.37575 0.25951 0.35345
291.15480 0.31428 0.24906 0.37477 0.25750 0.34976
291.16428 0.30901 0.24727 0.35363 0.24996 0.34323
291.17376 0.30714 0.25248 0.34838 0.24410 0.33296
291.18328 0.29278 0.23670 0.34019 0.23336 0.31982
291.19276 0.29284 0.23023 0.33359 0.23354 0.31305
291.20225 0.28936 0.23684 0.33218 0.22815 0.31445
291.21174 0.27206 0.22448 0.31662 0.22515 0.30054
291.22122 0.26894 0.22372 0.31047 0.21870 0.28602
291.23070 0.26938 0.21281 0.30710 0.21820 0.28588
291.24022 0.25799 0.21460 0.29264 0.20888 0.27818
291.24970 0.25343 0.21164 0.29320 0.20962 0.27601
291.25918 0.25224 0.20574 0.27632 0.20473 0.26361
291.26867 0.24749 0.20075 0.27809 0.20310 0.26363
291.27815 0.23928 0.19799 0.27380 0.19054 0.25146
291.28763 0.23635 0.18772 0.26254 0.19214 0.24758
291.29713 0.23773 0.19217 0.25862 0.19388 0.24800
291.30661 0.22771 0.18839 0.25370 0.17950 0.23797
291.31612 0.21786 0.17667 0.23999 0.17667 0.22705
291.32561 0.21379 0.18043 0.23285 0.17804 0.22468
291.33509 0.21977 0.17816 0.24488 0.17231 0.22493
291.34457 0.21270 0.17243 0.23438 0.17587 0.21855
291.35406 0.20861 0.17188 0.22386 0.16599 0.21381
291.36354 0.19853 0.16256 0.21479 0.16291 0.20372
291.37302 0.20165 0.16389 0.21794 0.16042 0.20720
291.38251 0.19578 0.15731 0.20849 0.15388 0.19406
291.39200 0.18235 0.15482 0.20919 0.15345 0.19129
291.40148 0.18387 0.14944 0.20178 0.14772 0.18284
291.41097 0.18313 0.14616 0.19888 0.14651 0.18142
291.42045 0.17649 0.15039 0.19537 0.14593 0.17374
291.42993 0.16547 0.14483 0.19059 0.13692 0.17407
291.43942 0.16784 0.14234 0.18955 0.14441 0.16991
291.44890 0.16667 0.13195 0.17986 0.13334 0.16736
291.45838 0.16257 0.13286 0.18005 0.13041 0.16117
291.46787 0.16081 0.13724 0.17102 0.12668 0.16081
291.47735 0.15536 0.13124 0.16281 0.12876 0.15678
291.48684 0.15931 0.12645 0.16753 0.12288 0.15431
291.49633 0.14801 0.12143 0.15843 0.11999 0.15412
291.50581 0.14272 0.12115 0.15961 0.12043 0.14164
291.51529 0.15065 0.13052 0.16719 0.12620 0.14886
291.52478 0.13537 0.11747 0.15185 0.11138 0.14074
291.53426 0.13593 0.12374 0.15028 0.11262 0.13557
291.54374 0.13497 0.11360 0.14174 0.11040 0.13177
291.55323 0.13131 0.11652 0.14393 0.10822 0.13492
291.56271 0.12924 0.10908 0.14688 0.11088 0.13068
291.57219 0.12723 0.10993 0.13300 0.10200 0.12399
291.58169 0.12208 0.10843 0.13967 0.10269 0.12136
291.59117 0.12013 0.10409 0.13296 0.10729 0.12440
291.60065 0.11907 0.10075 0.12682 0.10110 0.11696
291.61014 0.11761 0.10186 0.12636 0.10256 0.11971
291.61962 0.11587 0.09144 0.11831 0.09109 0.11377
291.62910 0.11729 0.10320 0.12469 0.09545 0.11553
291.63856 0.11412 0.10179 0.12081 0.09369 0.11905
291.64804 0.11109 0.09948 0.11952 0.09421 0.11355
291.65752 0.10780 0.09275 0.11025 0.09240 0.10780
291.66701 0.10920 0.09656 0.11131 0.09621 0.10359
291.67649 0.10010 0.08610 0.10955 0.08295 0.10325
291.68598 0.10256 0.08646 0.11201 0.08576 0.09976
291.69547 0.09722 0.08979 0.10535 0.08661 0.09934
291.70495 0.10443 0.09164 0.10266 0.08561 0.10372
291.71440 0.09673 0.08342 0.10644 0.07839 0.10033
291.72389 0.09663 0.08215 0.10025 0.08541 0.09952
291.73337 0.09950 0.08941 0.10563 0.08905 0.10094
291.74285 0.09270 0.08017 0.10058 0.08232 0.09735
291.75234 0.10023 0.08647 0.10306 0.08400 0.09671
291.76182 0.09530 0.07849 0.09881 0.07814 0.09040
291.77130 0.08957 0.07728 0.09379 0.07798 0.09133
291.78076 0.08713 0.07190 0.09209 0.07190 0.07934
291.79024 0.08735 0.07883 0.09659 0.07422 0.08664
291.79973 0.08596 0.07393 0.08985 0.07322 0.08348
291.80922 0.08478 0.07812 0.08618 0.07672 0.08513
291.81870 0.08240 0.07441 0.08588 0.07197 0.08518
291.82815 0.07486 0.06796 0.08452 0.06727 0.07693
291.83764 0.07820 0.07059 0.08512 0.07059 0.07855
291.84712 0.07495 0.06528 0.07771 0.06562 0.07357
291.85660 0.08621 0.07305 0.08690 0.07236 0.08309
291.86606 0.07749 0.06533 0.07819 0.06046 0.07506
291.87554 0.07496 0.06802 0.08225 0.06664 0.07982
291.88502 0.07112 0.06972 0.07251 0.06170 0.07670
291.89451 0.07641 0.06738 0.07571 0.06495 0.07293
291.90396 0.07404 0.06535 0.07717 0.06014 0.07335
291.91345 0.06690 0.06028 0.07840 0.06550 0.07317
291.92294 0.07218 0.06381 0.07845 0.06381 0.07288
291.93242 0.07052 0.06842 0.07508 0.06175 0.06842
291.94187 0.06592 0.05995 0.06837 0.06241 0.06697
291.95136 0.07054 0.06181 0.07962 0.06076 0.07683
291.96084 0.06789 0.05914 0.06754 0.06089 0.06404
291.97032 0.06134 0.05468 0.06414 0.05573 0.06484
291.97978 0.06714 0.06187 0.06609 0.05800 0.06609
291.98926 0.06367 0.05947 0.06997 0.05842 0.06332
291.99874 0.05813 0.05285 0.06623 0.05285 0.06165
292.00820 0.06627 0.05635 0.06946 0.05600 0.06769
292.01768 0.06418 0.05924 0.06911 0.05818 0.06277
292.02717 0.06121 0.05945 0.06684 0.05593 0.06614
292.03663 0.06426 0.05238 0.06635 0.05762 0.06356
292.04611 0.05936 0.05797 0.06561 0.05519 0.05936
292.05559 0.05843 0.05428 0.06119 0.05497 0.06327
292.06505 0.06091 0.05329 0.06333 0.05295 0.06575
292.07453 0.05814 0.05087 0.06333 0.05572 0.06472
292.08401 0.05172 0.04859 0.05727 0.04790 0.05831
292.09347 0.05405 0.05440 0.06033 0.05580 0.05684
292.10295 0.05740 0.04865 0.06125 0.05040 0.05810
292.11240 0.05651 0.05440 0.06177 0.05510 0.05967
292.12189 0.05449 0.05414 0.06539 0.05484 0.05625
292.13137 0.05676 0.04457 0.06128 0.05119 0.05502
292.14082 0.05529 0.05039 0.06054 0.05074 0.05949
292.15032 0.05720 0.05093 0.05895 0.05128 0.05720
292.15977 0.05036 0.05141 0.06015 0.04721 0.05316
292.16925 0.05516 0.04818 0.05970 0.04573 0.05691
292.17874 0.05064 0.04888 0.05486 0.05240 0.05205
292.18819 0.05238 0.04884 0.05627 0.04318 0.05273
292.19767 0.04909 0.04411 0.05407 0.04091 0.05087
292.20713 0.04352 0.04281 0.05166 0.04847 0.05484
292.21661 0.05386 0.04606 0.05244 0.04819 0.05634
292.22606 0.05273 0.04707 0.05485 0.04671 0.05556
292.23555 0.05082 0.05011 0.04976 0.04447 0.04800
292.24503 0.05212 0.04255 0.05638 0.04787 0.04928
292.25448 0.04597 0.04027 0.04882 0.04668 0.04882
292.26397 0.05495 0.05245 0.05638 0.05138 0.05459
292.27343 0.04531 0.04315 0.05142 0.04459 0.04675
292.28291 0.05187 0.04583 0.04939 0.04512 0.04974
292.29237 0.04677 0.04044 0.04712 0.04079 0.04501
292.30185 0.05069 0.03943 0.04541 0.04259 0.04541
292.31130 0.04833 0.04268 0.05185 0.04092 0.05009
292.32079 0.04733 0.03986 0.04484 0.04128 0.05124
292.33024 0.04391 0.03962 0.04890 0.03463 0.04462
292.33972 0.04259 0.04116 0.04832 0.04331 0.05046
292.34918 0.04282 0.03857 0.05202 0.03892 0.04635
292.35866 0.04202 0.03990 0.04766 0.03919 0.04272
292.36811 0.04726 0.04691 0.05252 0.04481 0.05427
292.37757 0.04735 0.04178 0.04317 0.03934 0.04596
292.38705 0.04443 0.03498 0.04198 0.03848 0.04058
292.39650 0.04609 0.04051 0.04714 0.04574 0.05063
292.40600 0.04672 0.04219 0.04463 0.04289 0.04184
292.41545 0.03941 0.04150 0.04080 0.03662 0.04255
292.42493 0.04465 0.04081 0.04499 0.04151 0.04639
292.43439 0.04479 0.04305 0.04965 0.04444 0.04583
292.44387 0.04552 0.03753 0.04656 0.03996 0.04552
292.45332 0.04369 0.04229 0.04858 0.04579 0.04579
292.46278 0.04359 0.04220 0.04394 0.04464 0.04638
292.47226 0.04321 0.04251 0.04989 0.04181 0.04954
292.48171 0.04759 0.03884 0.04794 0.04304 0.04549
292.49120 0.04450 0.04450 0.04839 0.04344 0.04662
292.50065 0.04427 0.03860 0.04675 0.04604 0.04993
292.51010 0.04676 0.04145 0.04570 0.04676 0.04924
292.51959 0.04193 0.03695 0.04015 0.03518 0.03944
292.52904 0.04378 0.04095 0.04872 0.03848 0.04554
292.53849 0.04131 0.03778 0.04590 0.03354 0.04060
292.54798 0.04458 0.03679 0.03821 0.03715 0.04069
292.55744 0.04166 0.03778 0.04413 0.04131 0.04519
292.56689 0.03565 0.03388 0.04165 0.03600 0.04235
292.57638 0.03821 0.03716 0.04172 0.03541 0.04101
292.58583 0.03798 0.03937 0.04040 0.03867 0.04040
292.59528 0.03514 0.03927 0.04685 0.03893 0.04306
292.60477 0.03660 0.02893 0.03869 0.03311 0.03590
292.61422 0.04354 0.03414 0.04459 0.03762 0.04285
292.62367 0.03322 0.02872 0.03841 0.03183 0.03460
292.63316 0.03715 0.03507 0.03889 0.03438 0.04063
292.64261 0.03656 0.03410 0.04289 0.03234 0.04148
292.65206 0.04004 0.03337 0.04461 0.03513 0.03969
292.66155 0.03130 0.03481 0.04114 0.03657 0.04079
292.67100 0.03657 0.03692 0.03901 0.03727 0.03936
292.68045 0.03583 0.03829 0.04532 0.03407 0.03794
292.68991 0.03675 0.03181 0.03287 0.02898 0.03817
292.69939 0.03984 0.03632 0.04055 0.03596 0.04055
292.70885 0.03498 0.03393 0.03707 0.03777 0.04022
292.71831 0.03890 0.03473 0.04133 0.03404 0.03369
292.72776 0.03896 0.04070 0.04557 0.03200 0.04348
292.73724 0.03466 0.03535 0.03951 0.03154 0.04332
292.74670 0.04039 0.03377 0.04283 0.03552 0.03760
292.75615 0.04233 0.03708 0.04513 0.04128 0.04373
292.76560 0.03192 0.03051 0.03928 0.03437 0.03507
292.77509 0.03827 0.03686 0.03722 0.03581 0.03651
292.78454 0.03979 0.03421 0.04014 0.03316 0.03630
292.79399 0.04006 0.03031 0.03449 0.03135 0.03971
292.80345 0.03641 0.03537 0.03537 0.03329 0.04022
292.81290 0.03242 0.03451 0.03800 0.03312 0.03765
292.82238 0.03394 0.03152 0.03394 0.02978 0.03325
292.83184 0.03624 0.03415 0.03659 0.03310 0.03868
292.84129 0.04084 0.03456 0.04259 0.03595 0.04224
292.85074 0.03659 0.03485 0.03659 0.03171 0.03764
292.86020 0.03492 0.02968 0.03422 0.03073 0.03806
292.86968 0.03279 0.02686 0.03662 0.03174 0.03872
292.87914 0.04026 0.03505 0.04408 0.03679 0.03783
292.88860 0.03543 0.03161 0.03613 0.03370 0.03474
292.89805 0.03240 0.03344 0.03379 0.03065 0.03588
292.90750 0.03577 0.02778 0.03889 0.03299 0.03507
292.91696 0.03276 0.03032 0.03660 0.03241 0.03799
292.92641 0.03073 0.02762 0.03763 0.03176 0.03867
292.93587 0.03265 0.03299 0.03677 0.02887 0.03574
292.94535 0.03702 0.03359 0.03633 0.03873 0.03325
292.95480 0.03043 0.02770 0.03658 0.02872 0.03111
292.96426 0.03050 0.02639 0.03221 0.02776 0.03290
292.97371 0.03721 0.03756 0.04100 0.03342 0.03997
292.98316 0.03391 0.03252 0.03425 0.03252 0.03287
292.99262 0.03168 0.03581 0.03960 0.03513 0.03444
293.00207 0.03135 0.02420 0.03033 0.02999 0.02795
293.01152 0.03150 0.02371 0.03354 0.02947 0.03489
293.02098 0.02946 0.02980 0.03725 0.02743 0.03217
293.03043 0.02910 0.02673 0.03181 0.02944 0.03045
293.03988 0.03468 0.02901 0.03201 0.02901 0.03468
293.04934 0.03765 0.03429 0.04202 0.03328 0.03194
293.05882 0.03245 0.02476 0.03479 0.02910 0.03245
293.06828 0.03266 0.03502 0.03367 0.03334 0.03502
293.07774 0.03231 0.02794 0.03265 0.02861 0.03500
293.08719 0.03055 0.03223 0.02887 0.02853 0.03558
293.09664 0.03364 0.03162 0.03902 0.03229 0.03398
293.10610 0.03400 0.02760 0.03366 0.02727 0.03635
293.11555 0.03083 0.02714 0.03117 0.02916 0.03117
293.12500 0.03590 0.03154 0.03388 0.03120 0.03757
293.13446 0.03207 0.02835 0.03544 0.02464 0.03375
293.14391 0.03297 0.03467 0.03671 0.03297 0.03535
293.15336 0.03204 0.03034 0.03818 0.03613 0.03716
293.16282 0.03249 0.03013 0.03419 0.03114 0.03486
293.17227 0.02937 0.03241 0.03140 0.02701 0.03646
293.18172 0.03291 0.02787 0.03224 0.02653 0.03190
293.19118 0.02575 0.02542 0.02709 0.02676 0.03043
293.20063 0.03352 0.02682 0.03386 0.02883 0.03285
293.21008 0.02965 0.02897 0.02628 0.02662 0.02897
293.21951 0.02777 0.02977 0.03212 0.02676 0.03279
293.22896 0.03046 0.02578 0.03080 0.02711 0.02711
293.23841 0.02816 0.02782 0.03017 0.02447 0.03319
293.24787 0.02571 0.02971 0.03339 0.02537 0.03072
293.25732 0.02887 0.02652 0.03223 0.03156 0.03357
293.26677 0.02977 0.02542 0.02944 0.02609 0.03412
293.27623 0.03449 0.03114 0.03081 0.03215 0.03215
293.28569 0.03139 0.02638 0.03072 0.02538 0.03072
293.29514 0.03093 0.02387 0.03093 0.02656 0.03227
293.30460 0.02772 0.02772 0.03339 0.02571 0.03373
293.31405 0.02749 0.02615 0.03252 0.03017 0.02816
293.32350 0.02822 0.02620 0.02923 0.02553 0.03158
293.33293 0.02817 0.02683 0.03219 0.02314 0.02616
293.34238 0.03383 0.03283 0.03182 0.02814 0.02981
293.35183 0.02264 0.02264 0.02863 0.02364 0.02797
293.36129 0.03185 0.02816 0.03755 0.02816 0.03085
293.37074 0.02990 0.02691 0.03223 0.02890 0.03522
293.38019 0.02909 0.02274 0.03244 0.02541 0.02876
293.38965 0.03228 0.03026 0.02992 0.02757 0.02925
293.39907 0.02941 0.02941 0.03110 0.02772 0.03042
293.40852 0.02509 0.02475 0.02645 0.02475 0.02780
293.41798 0.03277 0.03003 0.03345 0.02935 0.03447
293.42743 0.03273 0.03341 0.03716 0.03409 0.03307
293.43688 0.02957 0.02549 0.03262 0.02719 0.03296
293.44631 0.02748 0.02273 0.02510 0.02375 0.02544
293.45576 0.03049 0.02379 0.03317 0.02714 0.02982
293.46521 0.03249 0.02843 0.03215 0.02606 0.03012
293.47467 0.02411 0.01970 0.02615 0.02275 0.02649
293.48412 0.02885 0.02410 0.02885 0.02613 0.02851
293.49354 0.02844 0.03047 0.03656 0.02505 0.03826
293.50300 0.02919 0.03292 0.03190 0.02919 0.03224
293.51245 0.02953 0.02685 0.02819 0.02450 0.03523
293.52190 0.02580 0.02580 0.02413 0.02379 0.02111
293.53133 0.02623 0.02524 0.03587 0.02424 0.02922
293.54078 0.02585 0.02353 0.02817 0.02353 0.02618
293.55024 0.02798 0.02198 0.02865 0.02731 0.03098
293.55970 0.02526 0.02028 0.02659 0.02393 0.02493
293.56912 0.02843 0.02479 0.03173 0.02545 0.02909
293.57857 0.02756 0.02590 0.03154 0.02756 0.02756
293.58803 0.03049 0.02552 0.03149 0.02652 0.02751
293.59748 0.02709 0.02313 0.02577 0.02511 0.02544
293.60690 0.02611 0.02545 0.02545 0.02281 0.02512
293.61636 0.02955 0.02689 0.02888 0.02822 0.02888
293.62581 0.02823 0.02624 0.03255 0.03056 0.03488
293.63523 0.02647 0.02546 0.03082 0.02915 0.03116
293.64469 0.03043 0.02541 0.03110 0.02408 0.03043
293.65414 0.02927 0.02627 0.03160 0.02594 0.02860
293.66356 0.02689 0.02353 0.02890 0.02386 0.02924
293.67302 0.02625 0.02393 0.02791 0.02592 0.02758
293.68247 0.02974 0.02577 0.02974 0.02709 0.03304
293.69189 0.02824 0.02594 0.02955 0.02003 0.02791
293.70135 0.02198 0.02461 0.02691 0.02494 0.02592
293.71080 0.02233 0.02298 0.02462 0.02265 0.02594
293.72023 0.02789 0.02297 0.02625 0.02461 0.02690
293.72968 0.02662 0.02202 0.02793 0.01972 0.02793
293.73913 0.02802 0.02672 0.02965 0.02444 0.02900
293.74856 0.02813 0.02486 0.03075 0.02453 0.02780
293.75801 0.02947 0.02331 0.02720 0.02364 0.02785
293.76746 0.02461 0.02590 0.02881 0.02461 0.02720
293.77689 0.02599 0.02664 0.02469 0.02404 0.02567
293.78634 0.02800 0.02507 0.02930 0.02377 0.03060
293.79576 0.02936 0.02479 0.03099 0.02349 0.02871
293.80522 0.02637 0.02311 0.03060 0.02734 0.03060
293.81467 0.02067 0.02264 0.02625 0.02428 0.02067
293.82409 0.02906 0.02384 0.03004 0.02612 0.02906
293.83355 0.02283 0.02022 0.02315 0.02511 0.02250
293.84297 0.02596 0.02564 0.02921 0.02531 0.02921
293.85242 0.02911 0.02028 0.02813 0.02257 0.02879
293.86185 0.02387 0.02158 0.02648 0.02093 0.02321
293.87130 0.02835 0.02868 0.03063 0.02737 0.02737
293.88072 0.02421 0.02814 0.02650 0.02028 0.02290
293.89018 0.02302 0.02270 0.02724 0.02335 0.02529
293.89960 0.02451 0.02026 0.02582 0.02255 0.03137
293.90906 0.01994 0.01831 0.02517 0.02158 0.02419
293.91852 0.03046 0.02555 0.02752 0.02653 0.02883
293.92794 0.02335 0.02434 0.02664 0.02302 0.02368
293.93739 0.02512 0.02579 0.02843 0.02446 0.02612
293.94682 0.02228 0.02392 0.02490 0.02261 0.02425
293.95627 0.02692 0.02199 0.02758 0.02561 0.02298
293.96569 0.02362 0.01936 0.02658 0.02395 0.02494
293.97515 0.02814 0.02356 0.03173 0.02617 0.02912
293.98457 0.02477 0.02607 0.02411 0.02770 0.02574
293.99399 0.02692 0.02627 0.02692 0.02659 0.02919
294.00345 0.02341 0.01691 0.02439 0.02114 0.02081
294.01287 0.02652 0.02684 0.02881 0.02619 0.02619
294.02232 0.02482 0.02646 0.02450 0.02384 0.02613
294.03175 0.02347 0.01951 0.02116 0.01785 0.02380
294.04120 0.02405 0.02076 0.02899 0.02043 0.02800
294.05062 0.02537 0.02304 0.02537 0.02037 0.02704
294.06008 0.02765 0.02799 0.02466 0.02665 0.02965
294.06950 0.02379 0.02010 0.02613 0.02144 0.02178
294.07892 0.02240 0.01906 0.02174 0.02006 0.02073
294.08838 0.02249 0.02081 0.02416 0.02215 0.02484
294.09780 0.02408 0.02375 0.02375 0.02241 0.02241
294.10725 0.02350 0.02417 0.02518 0.02753 0.02485
294.11668 0.02759 0.02456 0.02591 0.02322 0.02557
294.12610 0.02853 0.02585 0.02920 0.02686 0.02350
294.13555 0.02193 0.02058 0.02598 0.02261 0.02294
294.14498 0.02154 0.02087 0.02288 0.01447 0.01918
294.15443 0.02418 0.02049 0.02620 0.02015 0.02385
294.16385 0.02825 0.02393 0.02393 0.02160 0.02891
294.17328 0.02259 0.02390 0.02390 0.02324 0.03044
294.18273 0.03191 0.02434 0.02730 0.02105 0.02598
294.19215 0.02521 0.02161 0.02357 0.02553 0.02291
294.20158 0.02643 0.02510 0.02907 0.02477 0.02213
294.21103 0.02076 0.01714 0.02142 0.01648 0.02636
294.22045 0.02488 0.02455 0.02717 0.02389 0.02488
294.22988 0.01977 0.02010 0.02471 0.02240 0.01812
294.23933 0.02553 0.02422 0.02618 0.02553 0.02815
294.24875 0.01802 0.02097 0.02065 0.01999 0.02491
294.25818 0.02415 0.01958 0.02284 0.02545 0.02382
294.26763 0.02647 0.02217 0.02382 0.02184 0.02415
294.27706 0.02163 0.02129 0.02562 0.01996 0.02396
294.28648 0.02779 0.02645 0.03013 0.02678 0.02913
294.29590 0.01968 0.02001 0.02168 0.01767 0.02268
294.30536 0.02311 0.02344 0.02277 0.02210 0.02578
294.31478 0.02156 0.02090 0.02057 0.01924 0.02057
294.32420 0.02523 0.02556 0.02491 0.02360 0.02523
294.33366 0.02028 0.01897 0.02224 0.01897 0.01897
294.34308 0.02300 0.02037 0.02267 0.02201 0.02037
294.35250 0.02279 0.02213 0.02180 0.01652 0.02081
294.36193 0.02486 0.02188 0.02486 0.02486 0.02453
294.37138 0.02462 0.02068 0.02330 0.02330 0.02856
294.38080 0.02263 0.02492 0.02525 0.02066 0.02295
294.39023 0.01720 0.01688 0.02110 0.01850 0.01915
294.39965 0.02369 0.01817 0.02629 0.02207 0.02207
294.40907 0.01869 0.01934 0.02321 0.02256 0.01998
294.41853 0.02305 0.02338 0.02598 0.02468 0.02078
294.42795 0.02333 0.01977 0.02041 0.01361 0.02139
294.43737 0.02583 0.02256 0.02844 0.02485 0.02975
294.44680 0.01951 0.01821 0.01821 0.02146 0.01854
294.45622 0.02022 0.02185 0.02153 0.02185 0.02479
294.46567 0.02243 0.01788 0.02048 0.02145 0.02405
294.47510 0.02313 0.02182 0.02215 0.02182 0.02573
294.48452 0.02277 0.02115 0.02408 0.02212 0.02310
294.49394 0.02218 0.02283 0.02120 0.02283 0.02186
294.50337 0.02158 0.02223 0.02419 0.01798 0.02386
294.51279 0.02407 0.01756 0.02472 0.02081 0.02244
294.52224 0.02183 0.02281 0.02346 0.01987 0.02281
294.53167 0.02326 0.01802 0.01900 0.01933 0.02097
294.54109 0.02030 0.02193 0.02390 0.01833 0.01866
294.55051 0.02444 0.02183 0.02118 0.02411 0.02281
294.55994 0.02364 0.02102 0.02102 0.02069 0.02036
294.56936 0.02299 0.02201 0.02759 0.02365 0.02464
294.57878 0.02660 0.02562 0.02791 0.02233 0.02332
294.58821 0.02340 0.01812 0.02340 0.01911 0.02274
294.59763 0.02061 0.01898 0.02454 0.01832 0.02225
294.60708 0.02187 0.01763 0.01992 0.02220 0.01959
294.61651 0.02109 0.01946 0.02303 0.01914 0.02173
294.62593 0.02509 0.02248 0.03063 0.02118 0.02737
294.63535 0.02107 0.01524 0.02107 0.01751 0.01588
294.64478 0.02051 0.01497 0.02507 0.01986 0.02149
294.65420 0.02435 0.02565 0.02597 0.02727 0.02824
294.66362 0.02147 0.01692 0.01757 0.02115 0.02310
294.67305 0.02021 0.01663 0.01924 0.01565 0.02054
294.68247 0.01994 0.01896 0.01962 0.01667 0.01766
294.69189 0.02501 0.01981 0.02468 0.02111 0.02014
294.70132 0.02166 0.02490 0.02587 0.02231 0.02425
294.71074 0.02625 0.02268 0.02592 0.02333 0.02495
294.72016 0.01736 0.01929 0.01929 0.02154 0.02154
294.72959 0.01743 0.01259 0.02130 0.01614 0.01710
294.73901 0.01817 0.01849 0.02044 0.01914 0.02076
294.74844 0.02593 0.02560 0.02269 0.01847 0.02009
294.75786 0.02336 0.02206 0.02498 0.02239 0.02369
294.76728 0.02188 0.02058 0.02384 0.01927 0.02449
294.77671 0.02117 0.01791 0.01791 0.01661 0.01824
294.78613 0.01627 0.02018 0.02311 0.02083 0.02180
294.79555 0.02254 0.01829 0.01797 0.01895 0.02058
294.80498 0.02246 0.01693 0.02344 0.01921 0.02311
294.81440 0.02537 0.02174 0.02339 0.02207 0.02504
294.82382 0.02257 0.02028 0.02454 0.02094 0.01865
294.83325 0.02011 0.01747 0.02209 0.02044 0.02374
294.84267 0.02268 0.01808 0.02202 0.01808 0.01939
294.85209 0.02383 0.01828 0.02448 0.02219 0.02285
294.86152 0.02473 0.02343 0.02375 0.02180 0.02278
294.87094 0.01953 0.02181 0.02148 0.01628 0.01953
294.88036 0.02590 0.02229 0.02819 0.02229 0.02492
294.88979 0.02269 0.02170 0.02499 0.02499 0.02071
294.89918 0.01753 0.01554 0.02249 0.01786 0.01852
294.90860 0.02442 0.01848 0.02079 0.01881 0.02079
294.91803 0.01675 0.01675 0.02266 0.01576 0.01839
294.92745 0.01635 0.01603 0.02289 0.01962 0.02093
294.93687 0.01974 0.01716 0.01554 0.01651 0.01748
294.94630 0.02053 0.02182 0.02053 0.01861 0.02086
294.95572 0.02102 0.01747 0.02038 0.02199 0.01779
294.96514 0.02031 0.02031 0.02063 0.01999 0.02031
294.97454 0.01834 0.01802 0.02381 0.02027 0.02156
294.98396 0.02061 0.02190 0.02544 0.01803 0.02190
294.99338 0.01865 0.01608 0.01769 0.01254 0.01704
295.00281 0.01737 0.01576 0.02026 0.01673 0.02155
295.01223 0.02086 0.01862 0.01990 0.02086 0.01733
295.02165 0.02040 0.02461 0.02493 0.01813 0.01975
295.03108 0.02225 0.01806 0.02354 0.01902 0.01838
295.04047 0.01841 0.01906 0.01777 0.01841 0.02003
295.04989 0.01932 0.01771 0.02029 0.01771 0.02512
295.05932 0.02083 0.02083 0.01757 0.01790 0.01887
295.06874 0.02047 0.01982 0.02209 0.01787 0.01917
295.07816 0.01969 0.01837 0.01870 0.02001 0.02165
295.08756 0.01466 0.01727 0.02151 0.01532 0.01694
295.09698 0.02089 0.02546 0.02285 0.02252 0.02415
295.10640 0.01763 0.01861 0.02057 0.01829 0.01633
295.11583 0.02538 0.02538 0.02604 0.02343 0.02343
295.12522 0.02105 0.02008 0.02203 0.01943 0.01879
295.13465 0.01719 0.01622 0.02238 0.02336 0.02368
295.14407 0.01516 0.02096 0.02258 0.02161 0.02225
295.15349 0.01772 0.01739 0.02351 0.01772 0.02287
295.16288 0.01473 0.01761 0.01409 0.01473 0.02145
295.17230 0.02130 0.02194 0.02033 0.01904 0.02130
295.18172 0.01584 0.01745 0.01810 0.01519 0.01907
295.19115 0.02156 0.02478 0.02381 0.02124 0.02188
295.20054 0.02002 0.01776 0.02132 0.02002 0.01873
295.20996 0.02098 0.01775 0.02162 0.02259 0.02098
295.21939 0.01685 0.01847 0.02106 0.01523 0.01944
295.22878 0.01356 0.01227 0.01646 0.01582 0.01904
295.23820 0.01656 0.01688 0.01981 0.01656 0.01786
295.24763 0.02025 0.01862 0.02123 0.01894 0.02515
295.25705 0.01801 0.01605 0.01768 0.01408 0.01441
295.26644 0.02095 0.02128 0.02161 0.01899 0.02259
295.27587 0.01278 0.01377 0.01770 0.01803 0.01704
295.28529 0.01798 0.01602 0.01798 0.01798 0.01831
295.29468 0.01305 0.01566 0.01729 0.01859 0.01696
295.30411 0.02406 0.01919 0.02374 0.01854 0.02504
295.31353 0.02074 0.02106 0.02633 0.02139 0.02403
295.32292 0.01810 0.01942 0.01843 0.01349 0.01843
295.33235 0.01619 0.01355 0.01784 0.01421 0.01718
295.34174 0.01524 0.01690 0.01922 0.01955 0.01988
295.35116 0.01804 0.01870 0.01936 0.02100 0.01870
295.36059 0.01771 0.01574 0.01508 0.01574 0.01377
295.36998 0.02011 0.01847 0.02473 0.01979 0.01682
295.37940 0.02137 0.01742 0.02104 0.01972 0.02235
295.38880 0.02435 0.02008 0.02304 0.02337 0.02534
295.39822 0.01841 0.01775 0.02104 0.02038 0.02203
295.40764 0.01979 0.01319 0.01517 0.01583 0.01847
295.41704 0.01589 0.01489 0.01820 0.01919 0.01820
295.42646 0.02272 0.01909 0.02304 0.02041 0.02074
295.43585 0.02170 0.02203 0.02400 0.01808 0.02005
295.44528 0.01913 0.02144 0.02276 0.02078 0.02309
295.45470 0.01540 0.01704 0.01999 0.01376 0.01605
295.46410 0.02245 0.01717 0.01849 0.01684 0.02113
295.47352 0.02184 0.02118 0.02084 0.01886 0.01919
295.48291 0.02267 0.01972 0.02005 0.01873 0.02005
295.49234 0.01777 0.01415 0.02270 0.01908 0.01809
295.50173 0.01926 0.01306 0.02056 0.01469 0.01828
295.51115 0.02014 0.01689 0.01656 0.01981 0.01591
295.52054 0.01625 0.01885 0.02308 0.02210 0.01950
295.52996 0.01467 0.01467 0.01858 0.01890 0.01793
295.53935 0.01698 0.01306 0.01502 0.01698 0.01698
295.54878 0.02777 0.02059 0.02189 0.02287 0.02287
295.55817 0.02112 0.01527 0.01624 0.01527 0.01787
295.56759 0.01941 0.02589 0.02362 0.02233 0.02233
295.57699 0.02003 0.01971 0.02100 0.01842 0.01713
295.58641 0.01421 0.01356 0.01969 0.01517 0.01388
295.59580 0.01712 0.01486 0.02099 0.01873 0.02002
295.60523 0.01861 0.01829 0.02054 0.01797 0.02086
295.61462 0.01900 0.01965 0.02415 0.02093 0.02415
295.62404 0.01570 0.01474 0.01602 0.01602 0.01698
295.63344 0.01995 0.01899 0.01899 0.02092 0.02188
295.64283 0.02139 0.02011 0.02363 0.02299 0.01980
295.65225 0.01596 0.01596 0.01820 0.01596 0.02330
295.66165 0.01898 0.01834 0.02123 0.01416 0.01673
295.67107 0.01631 0.01759 0.01855 0.01375 0.01663
295.68046 0.01595 0.01627 0.01819 0.01436 0.01882
295.68989 0.01500 0.01372 0.01755 0.01564 0.01596
295.69928 0.01636 0.01893 0.01893 0.02021 0.01764
295.70867 0.01992 0.01446 0.01928 0.01542 0.02024
295.71810 0.02002 0.01841 0.01582 0.01841 0.01776
295.72749 0.01834 0.01416 0.01641 0.01416 0.01770
295.73691 0.01956 0.01956 0.01956 0.02277 0.02148
295.74631 0.01216 0.01344 0.01472 0.01312 0.01760
295.75570 0.01980 0.01565 0.01725 0.01661 0.01757
295.76512 0.01766 0.01317 0.02184 0.01381 0.01830
295.77452 0.01257 0.01418 0.01547 0.01418 0.01644
295.78390 0.01861 0.01219 0.01861 0.02086 0.01797
295.79333 0.01447 0.01447 0.01704 0.02058 0.01801
295.80272 0.01920 0.02176 0.02240 0.01760 0.02304
295.81211 0.01799 0.01735 0.01864 0.01221 0.01446
295.82154 0.01721 0.01785 0.01753 0.01594 0.01466
295.83093 0.01478 0.01638 0.02152 0.01478 0.01446
295.84032 0.01542 0.01221 0.01349 0.01414 0.01317
295.84975 0.01928 0.01607 0.01864 0.01896 0.01671
295.85914 0.01413 0.01605 0.01541 0.01252 0.01509
295.86853 0.02091 0.01641 0.01866 0.01801 0.02123
295.87793 0.01648 0.01002 0.01131 0.00808 0.01422
295.88735 0.02072 0.01910 0.01457 0.01684 0.01651
295.89674 0.01324 0.01388 0.01744 0.01550 0.01485
295.90614 0.02162 0.01904 0.02162 0.02291 0.01936
295.91556 0.01522 0.01717 0.01717 0.01619 0.02040
295.92495 0.01384 0.01513 0.01835 0.01963 0.02156
295.93435 0.01754 0.01754 0.01916 0.01948 0.01851
295.94374 0.01694 0.01205 0.01661 0.01726 0.01563
295.95316 0.01665 0.01730 0.01861 0.01763 0.01632
295.96256 0.01373 0.01504 0.01798 0.01537 0.02027
295.97195 0.01873 0.01347 0.01544 0.01774 0.01873
295.98134 0.01760 0.01336 0.01792 0.01727 0.01727
295.99073 0.01642 0.02003 0.01839 0.01970 0.01642
296.00015 0.01563 0.01433 0.01694 0.01466 0.01629
296.00954 0.01960 0.01666 0.01764 0.01732 0.01895
296.01894 0.01532 0.01793 0.01598 0.01924 0.01728
296.02833 0.01933 0.01704 0.02195 0.01835 0.02228
296.03772 0.01664 0.01892 0.01795 0.01566 0.01795
296.04715 0.01411 0.01837 0.01476 0.01607 0.01640
296.05654 0.01922 0.01466 0.01596 0.01596 0.01694
296.06593 0.01507 0.01278 0.01343 0.01605 0.01474
296.07533 0.01916 0.01884 0.01884 0.01592 0.02209
296.08472 0.01453 0.01937 0.02357 0.01776 0.01518
296.09412 0.01395 0.01720 0.01752 0.01850 0.01947
296.10354 0.01154 0.01923 0.01827 0.01539 0.01923
296.11293 0.02083 0.01666 0.02051 0.01986 0.01858
296.12233 0.01922 0.01762 0.02243 0.01954 0.02147
296.13172 0.01533 0.01437 0.01757 0.01916 0.01533
296.14111 0.02001 0.01620 0.01937 0.01524 0.01969
296.15051 0.01943 0.01338 0.01688 0.01433 0.01338
296.15990 0.01759 0.01599 0.01663 0.01375 0.01471
296.16929 0.01259 0.01194 0.01549 0.01549 0.01356
296.17872 0.01804 0.01643 0.01772 0.01740 0.01933
296.18810 0.02022 0.01573 0.02022 0.01701 0.01765
296.19749 0.01221 0.01736 0.01607 0.01607 0.01993
296.20689 0.01867 0.01706 0.01416 0.01610 0.01320
296.21628 0.01380 0.01476 0.01894 0.01605 0.01605
296.22567 0.01765 0.01733 0.01893 0.01540 0.01957
296.23507 0.01702 0.01316 0.01605 0.01349 0.01637
296.24446 0.01496 0.01369 0.01082 0.01114 0.01592
296.25385 0.01901 0.01996 0.01838 0.01806 0.01901
296.26325 0.01261 0.01135 0.01419 0.01293 0.01135
296.27264 0.01737 0.01769 0.01990 0.01390 0.01800
296.28203 0.01554 0.01269 0.01491 0.01015 0.01649
296.29143 0.01573 0.01447 0.01919 0.01290 0.01573
296.30082 0.01481 0.01481 0.01544 0.01292 0.01986
296.31021 0.01189 0.01565 0.01565 0.01471 0.01628
296.31961 0.01253 0.01285 0.01504 0.01097 0.01441
296.32900 0.01370 0.01433 0.01339 0.00654 0.01495
296.33839 0.01275 0.01337 0.01368 0.01306 0.01555
296.34778 0.01726 0.01601 0.02134 0.02134 0.01726
296.35717 0.01512 0.01228 0.01197 0.01480 0.01291
296.36657 0.01350 0.01444 0.01915 0.01601 0.01475
296.37596 0.01861 0.01325 0.01672 0.01672 0.01293
296.38535 0.01350 0.01413 0.01665 0.01288 0.01288
296.39475 0.01580 0.01706 0.01675 0.01548 0.01928
296.40414 0.01358 0.01642 0.01958 0.01105 0.01832
296.41353 0.01627 0.01220 0.01314 0.01251 0.01314
296.42293 0.01476 0.01319 0.01664 0.00942 0.01193
296.43232 0.01878 0.01659 0.01565 0.01471 0.01502
296.44171 0.01498 0.01217 0.01685 0.01030 0.01217
296.45111 0.01582 0.01178 0.01644 0.01302 0.01302
296.46050 0.01525 0.01339 0.01588 0.01276 0.01339
296.46989 0.02072 0.01821 0.01789 0.02040 0.02040
296.47929 0.01727 0.01225 0.01916 0.01665 0.01979
296.48865 0.01165 0.01638 0.01512 0.01386 0.00976
296.49803 0.01813 0.01527 0.02067 0.01686 0.01558
296.50743 0.01465 0.01051 0.01242 0.01242 0.01242
296.51682 0.01840 0.01523 0.01333 0.01396 0.01237
296.52621 0.01422 0.01548 0.01390 0.01390 0.01737
296.53561 0.01708 0.01234 0.01329 0.01392 0.01614
296.54500 0.01952 0.01448 0.01322 0.01354 0.01480
296.55439 0.01882 0.01662 0.01537 0.01694 0.01443
296.56376 0.01062 0.01499 0.01530 0.00999 0.01155
296.57315 0.01072 0.01672 0.01451 0.01293 0.01766
296.58254 0.02028 0.01623 0.02247 0.01841 0.02028
296.59194 0.01523 0.00825 0.01174 0.00983 0.01523
296.60133 0.01572 0.01289 0.01352 0.01635 0.01540
296.61072 0.01048 0.01524 0.01238 0.01079 0.01397
296.62009 0.01171 0.01615 0.01551 0.01203 0.01710
296.62948 0.01402 0.01593 0.01689 0.01530 0.01689
296.63887 0.01150 0.01374 0.01853 0.01118 0.01789
296.64826 0.01975 0.01593 0.01657 0.01752 0.01848
296.65765 0.01144 0.01113 0.01303 0.01176 0.01271
296.66702 0.01951 0.01855 0.01759 0.01503 0.01503
296.67641 0.00858 0.00540 0.01876 0.01144 0.01240
296.68580 0.01504 0.01280 0.01792 0.01568 0.01568
296.69520 0.01726 0.01598 0.01215 0.01055 0.01438
296.70456 0.01563 0.01467 0.01818 0.01276 0.01563
296.71395 0.01146 0.01305 0.01242 0.01560 0.01433
296.72335 0.01359 0.01327 0.01327 0.01832 0.01801
296.73274 0.00720 0.00407 0.00250 0.00532 0.00250
296.74210 0.01563 0.01219 0.01532 0.01376 0.01469
296.75150 0.01126 0.01470 0.01439 0.01314 0.01626
296.76089 0.01791 0.01571 0.01634 0.01351 0.01696
296.77028 0.01251 0.00969 0.01032 0.00907 0.01157
296.77964 0.01845 0.01688 0.02189 0.01438 0.01751
296.78903 0.01497 0.00967 0.01372 0.01060 0.01497
296.79842 0.01652 0.01527 0.01652 0.01153 0.01652
296.80779 0.01925 0.01646 0.01801 0.01459 0.01708
296.81718 0.01373 0.01373 0.02060 0.01685 0.01280
296.82657 0.01125 0.00719 0.01531 0.01219 0.01438
296.83594 0.01324 0.01293 0.01293 0.00883 0.01482
296.84533 0.01751 0.01592 0.01656 0.01560 0.01688
296.85472 0.01848 0.01720 0.01912 0.01529 0.02167
296.86409 0.01551 0.01298 0.01456 0.01298 0.01139
296.87348 0.01509 0.01918 0.02075 0.01949 0.01886
296.88288 0.01379 0.01411 0.01818 0.01630 0.01379
296.89224 0.01844 0.01407 0.01657 0.01501 0.01282
296.90162 0.01808 0.01715 0.01746 0.01652 0.01496
296.91102 0.01434 0.01309 0.01621 0.01621 0.02057
296.92038 0.01692 0.01817 0.01974 0.01754 0.01786
296.92977 0.01301 0.01239 0.01084 0.01084 0.01115
296.93917 0.01678 0.01554 0.01647 0.01460 0.01398
296.94853 0.01358 0.01142 0.01050 0.01081 0.01420
296.95792 0.01624 0.01532 0.01961 0.01409 0.01379
296.96729 0.01779 0.01442 0.01841 0.01258 0.01503
296.97668 0.01419 0.01388 0.01480 0.00802 0.01141
296.98604 0.01254 0.01469 0.01499 0.01499 0.01254
296.99544 0.01356 0.01511 0.01387 0.01326 0.01387
297.00483 0.01413 0.01352 0.01536 0.01198 0.01383
297.01418 0.01444 0.01260 0.01629 0.01291 0.01383
297.02358 0.01421 0.01236 0.01452 0.01174 0.01359
297.03294 0.01261 0.01046 0.01477 0.01108 0.01661
297.04233 0.01593 0.01317 0.01103 0.01164 0.01715
297.05170 0.02001 0.01509 0.01693 0.01447 0.02094
297.06109 0.01044 0.00952 0.01659 0.01351 0.01167
297.07045 0.01087 0.01398 0.01615 0.01460 0.01336
297.07985 0.01319 0.01657 0.01780 0.01166 0.01411
297.08921 0.01197 0.01135 0.01473 0.01228 0.01289
297.09861 0.01177 0.01115 0.01301 0.01239 0.01672
297.10797 0.01106 0.01076 0.01567 0.01444 0.01414
297.11736 0.01605 0.01389 0.01883 0.01451 0.01667
297.12672 0.00897 0.00711 0.00990 0.00804 0.00742
297.13611 0.01701 0.01577 0.01453 0.01639 0.01546
297.14547 0.02119 0.01781 0.01658 0.01873 0.01658
297.15487 0.01350 0.01228 0.01381 0.01105 0.01228
297.16423 0.01473 0.01350 0.01442 0.01258 0.01534
297.17362 0.01749 0.01596 0.02056 0.01381 0.02148
297.18299 0.01465 0.01374 0.01649 0.01099 0.01465
297.19238 0.01367 0.01458 0.01701 0.01215 0.01245
297.20174 0.01064 0.01216 0.01459 0.01368 0.01307
297.21114 0.01316 0.00918 0.01040 0.00796 0.01163
297.22050 0.01127 0.01158 0.01249 0.00945 0.00884
297.22986 0.01528 0.01436 0.01161 0.01375 0.01253
297.23925 0.01404 0.01526 0.01770 0.01617 0.01587
297.24861 0.01279 0.01126 0.01279 0.01096 0.01400
297.25800 0.01160 0.00824 0.01496 0.01557 0.01313
297.26737 0.01559 0.01345 0.01682 0.01284 0.01835
297.27673 0.01339 0.01065 0.01278 0.01187 0.01643
297.28612 0.01336 0.01184 0.01579 0.01184 0.00881
297.29549 0.01285 0.01683 0.01622 0.01377 0.01683
297.30488 0.01129 0.01220 0.01281 0.00763 0.00793
297.31424 0.01711 0.01405 0.01680 0.01283 0.01680
297.32361 0.01908 0.01170 0.01262 0.01200 0.01324
297.33300 0.01803 0.01406 0.01528 0.01650 0.01375
297.34236 0.01445 0.00922 0.01138 0.01260 0.01322
297.35172 0.01007 0.00824 0.01465 0.00946 0.01404
297.36111 0.01871 0.01902 0.02025 0.01626 0.01810
297.37048 0.01860 0.01311 0.01768 0.01281 0.01707
297.37984 0.01293 0.01416 0.01508 0.01755 0.01601
297.38923 0.01538 0.01169 0.01507 0.01722 0.01322
297.39860 0.01535 0.01258 0.01995 0.01535 0.01657
297.40796 0.01289 0.00890 0.01350 0.00951 0.01197
297.41735 0.01467 0.01620 0.01406 0.01253 0.01926
297.42672 0.01322 0.01322 0.01630 0.01445 0.01384
297.43608 0.01285 0.00581 0.01010 0.01316 0.01041
297.44543 0.01456 0.01456 0.01518 0.01766 0.01271
297.45483 0.01633 0.01202 0.01571 0.01541 0.01325
297.46419 0.01790 0.01605 0.01574 0.01173 0.01976
297.47355 0.01325 0.00925 0.01202 0.01171 0.01356
297.48292 0.01138 0.00923 0.01138 0.01292 0.01230
297.49231 0.01313 0.01374 0.01497 0.01283 0.01313
297.50167 0.01564 0.00828 0.01288 0.01166 0.01104
297.51104 0.01098 0.00732 0.01281 0.00946 0.01190
297.52040 0.01379 0.01287 0.01318 0.01348 0.01256
297.52979 0.01495 0.01038 0.01190 0.00793 0.01373
297.53915 0.01036 0.01036 0.00884 0.00792 0.00945
297.54851 0.01127 0.00914 0.00884 0.01219 0.01462
297.55788 0.01340 0.01340 0.01280 0.01401 0.01676
297.56727 0.01431 0.01218 0.01674 0.01370 0.01461
297.57663 0.01503 0.01227 0.01809 0.01257 0.01227
297.58600 0.01037 0.01068 0.01373 0.00915 0.01220
297.59536 0.01107 0.01261 0.01476 0.01015 0.01015
297.60472 0.01288 0.00858 0.01134 0.00828 0.00950
297.61409 0.00858 0.00796 0.01440 0.00735 0.01378
297.62348 0.01244 0.00995 0.01493 0.01430 0.01430
297.63283 0.01788 0.01264 0.01449 0.01387 0.01202
297.64220 0.00904 0.01060 0.01309 0.01558 0.01091
297.65156 0.01576 0.00711 0.01143 0.00958 0.00989
297.66092 0.01081 0.01205 0.01359 0.00958 0.01267
297.67029 0.01330 0.01083 0.01423 0.01021 0.01640
297.67965 0.01109 0.00862 0.01509 0.01140 0.01109
297.68904 0.00981 0.01073 0.00981 0.00920 0.01288
297.69841 0.01778 0.01257 0.02054 0.01564 0.01502
297.70777 0.01495 0.01221 0.01343 0.01251 0.00855
297.71713 0.01567 0.01352 0.01813 0.01567 0.01413
297.72649 0.01881 0.01379 0.01693 0.01630 0.01881
297.73585 0.01777 0.01283 0.01514 0.01086 0.01547
