Date and Time:                Mon Jan 30 17:38:53.000 2023
Software Version:             4.31.30023.0
Temperature (C):              -40
Model:                        DU940P_BU2
Data Type:                    Counts
Acquisition Mode:             Single Scan
Trigger Mode:                 Internal
Exposure Time (secs):         0.2
Readout Mode:                 Full Vertical Binning
Horizontal binning:           1
Extended Dynamic Range:       off
Horizontally flipped:         false
Vertical Shift Speed (usecs): 14.51
Pixel Readout Rate (MHz):     3
Baseline Clamp:               ON
Clock Amplitude:              Normal
Output Amplifier:             High Capacity
Serial Number:                23634
Pre-Amplifier Gain:           1.000000
Spurious Noise Filter Mode:   No Filter
Photon counted:               false
Data Averaging Filter Mode:   No Filter
SR500i:
Serial Number:                
Wavelength (nm):              305
Grating Groove Density (l/mm):1199.47
Grating Blaze:                500
Output Flipper Port:          Direct
Accessory Output Port 1:      Off
Accessory Output Port 2:      Off
Accessory Output Port 3:      Off
Accessory Input Port:         On



283.48544	16525
283.50656	15809
283.52771	15788
283.54883	15750
283.56998	15872
283.59109	15968
283.61224	15889
283.63336	15876
283.65451	15822
283.67563	15839
283.69678	15715
283.7179	15509
283.73904	15515
283.76016	15620
283.78131	15672
283.80243	15588
283.82358	15682
283.8447	15636
283.86584	15797
283.88696	15788
283.90811	15714
283.92923	15775
283.95035	15745
283.9715	15738
283.99261	15694
284.01376	15622
284.03488	15630
284.056	15673
284.07715	15704
284.09827	15748
284.11942	15791
284.14053	15883
284.16165	15904
284.1828	15858
284.20392	15811
284.22504	15844
284.24619	15836
284.2673	15929
284.28842	15993
284.30957	15942
284.33069	15906
284.35181	15909
284.37296	15758
284.39407	15812
284.41519	15839
284.43634	16057
284.45746	16050
284.47858	16108
284.49969	16024
284.52084	15937
284.54196	15984
284.56308	16003
284.5842	15954
284.60535	16135
284.62646	16123
284.64758	16075
284.6687	16019
284.68985	16108
284.71097	16091
284.73209	16216
284.7532	16078
284.77432	16173
284.79547	16213
284.81659	16156
284.83771	16160
284.85883	16155
284.87994	16166
284.90106	16082
284.92221	15918
284.94333	15771
284.96445	15693
284.98557	15763
285.00668	15767
285.0278	15660
285.04892	15715
285.07004	15697
285.09116	15644
285.1123	15640
285.13342	15743
285.15454	15701
285.17566	15743
285.19678	15819
285.2179	15994
285.23901	15996
285.26013	16069
285.28125	16064
285.30237	16125
285.32349	16034
285.3446	15974
285.36572	15939
285.38684	15987
285.40796	16004
285.42908	15926
285.4502	15915
285.47131	15880
285.49243	15940
285.51355	15817
285.53467	15844
285.55579	15946
285.5769	16133
285.59802	16136
285.61914	16033
285.64026	16049
285.66138	16125
285.6825	16259
285.70358	16367
285.7247	16466
285.74582	16602
285.76694	16502
285.78806	16449
285.80917	16440
285.83029	16429
285.85141	16437
285.87253	16460
285.89362	16523
285.91473	16556
285.93585	16452
285.95697	16418
285.97809	16456
285.99921	16466
286.02029	16440
286.04141	16447
286.06253	16438
286.08365	16358
286.10477	16336
286.12585	16251
286.14697	16217
286.16809	16253
286.18921	16334
286.2103	16437
286.23141	16487
286.25253	16530
286.27365	16561
286.29474	16553
286.31586	16534
286.33698	16432
286.35809	16442
286.37918	16413
286.4003	16544
286.42142	16490
286.4425	16348
286.46362	16406
286.48474	16486
286.50583	16538
286.52695	16424
286.54807	16504
286.56915	16511
286.59027	16578
286.61139	16509
286.63248	16535
286.65359	16575
286.67468	16804
286.6958	16888
286.71692	16918
286.73801	17006
286.75912	16979
286.78021	16808
286.80133	16720
286.82245	16793
286.84354	16792
286.86465	16836
286.88574	16814
286.90686	16808
286.92795	16840
286.94907	16874
286.97015	16932
286.99127	17072
287.01236	17095
287.03348	17088
287.05457	17091
287.07568	17033
287.09677	17022
287.11789	17172
287.13898	17239
287.1601	17411
287.18118	17515
287.2023	17598
287.22339	17629
287.24451	17635
287.26559	17603
287.28671	17501
287.3078	17554
287.32889	17589
287.35001	17513
287.37109	17494
287.39221	17545
287.4133	17539
287.43439	17483
287.45551	17473
287.47659	17335
287.49771	17329
287.5188	17356
287.53989	17393
287.561	17451
287.58209	17508
287.60318	17385
287.6243	17572
287.64539	17697
287.66647	17736
287.68759	17686
287.70868	17832
287.72977	17907
287.75085	17936
287.77197	17949
287.79306	17933
287.81415	17979
287.83527	17945
287.85635	17883
287.87744	17674
287.89853	17775
287.91965	17870
287.94073	17862
287.96182	17905
287.98291	17987
288.004	17976
288.02512	17826
288.0462	17762
288.06729	17672
288.08838	17830
288.10947	17936
288.13058	17978
288.15167	18044
288.17276	18068
288.19385	18059
288.21494	17925
288.23602	17779
288.25711	17894
288.27823	17997
288.29932	18007
288.3204	18096
288.34149	18021
288.36258	17915
288.38367	17955
288.40475	18147
288.42584	18319
288.44693	18305
288.46802	18350
288.48911	18352
288.51022	18309
288.53131	18309
288.5524	18369
288.57349	18503
288.59457	18638
288.61566	18641
288.63675	18629
288.65784	18607
288.67892	18715
288.70001	18789
288.7211	18858
288.74219	18891
288.76328	18873
288.78436	18756
288.80545	18730
288.82654	18745
288.8476	18900
288.86868	18917
288.88977	18780
288.91086	18632
288.93195	18596
288.95303	18561
288.97412	18698
288.99521	18910
289.0163	18997
289.03738	18840
289.05847	18851
289.07956	18930
289.10062	19028
289.1217	19007
289.14279	18949
289.16388	18966
289.18497	18877
289.20605	18913
289.22711	18869
289.2482	18844
289.26929	18979
289.29037	18922
289.31146	18821
289.33255	19032
289.35361	19070
289.37469	19030
289.39578	18804
289.41687	18687
289.43793	18567
289.45901	18589
289.4801	18561
289.50119	18520
289.52225	18605
289.54333	18563
289.56442	18631
289.58551	18729
289.60657	18771
289.62766	18811
289.64874	18789
289.6698	18738
289.69089	18686
289.71198	18675
289.73303	18802
289.75412	18750
289.77521	18893
289.79626	18856
289.81735	18828
289.83844	18797
289.8595	18924
289.88058	19170
289.90167	19210
289.92273	19057
289.94382	18976
289.96487	19056
289.98596	19050
290.00705	19117
290.02811	19119
290.04919	19184
290.07025	19065
290.09134	19115
290.1124	19131
290.13348	19231
290.15454	19202
290.17563	19195
290.19672	19197
290.21777	19336
290.23886	19328
290.25992	19412
290.28101	19395
290.30206	19480
290.32315	19465
290.34421	19527
290.3653	19519
290.38635	19462
290.40741	19312
290.4285	19275
290.44955	19260
290.47064	19234
290.4917	19494
290.51279	19598
290.53384	19702
290.5549	19674
290.57599	19789
290.59705	19861
290.61813	19868
290.63919	19882
290.66025	19842
290.68134	19802
290.70239	19828
290.72348	19685
290.74454	19759
290.76559	19899
290.78668	19946
290.80774	19858
290.8288	19737
290.84988	19721
290.87094	19750
290.892	19774
290.91306	19774
290.93414	19972
290.9552	20138
290.97626	20304
290.99734	20410
291.0184	20310
291.03946	20261
291.06052	20258
291.0816	20327
291.10266	20402
291.12372	20488
291.14478	20470
291.16586	20413
291.18692	20250
291.20798	20174
291.22903	20126
291.25009	20209
291.27118	20330
291.29224	20601
291.31329	20707
291.33435	20618
291.35541	20422
291.37646	20386
291.39752	20381
291.41861	20517
291.43967	20671
291.46072	20751
291.48178	20960
291.50284	20842
291.5239	20772
291.54495	20787
291.56601	20841
291.58707	20839
291.60815	20929
291.62921	20936
291.65027	20930
291.67133	20846
291.69238	20796
291.71344	20780
291.7345	20727
291.75555	20694
291.77661	20687
291.79767	20663
291.81873	20673
291.83978	20648
291.86084	20719
291.8819	20729
291.90295	20748
291.92401	20937
291.94507	21067
291.96613	21187
291.98718	21198
292.00824	21128
292.0293	21291
292.05035	21239
292.07141	21054
292.09244	20965
292.11349	21011
292.13455	21128
292.15561	21073
292.17667	20943
292.19772	20967
292.21878	21133
292.23984	21161
292.26089	21168
292.28192	21186
292.30298	21177
292.32404	21121
292.34509	21049
292.36615	21279
292.38721	21581
292.40823	21633
292.42929	21601
292.45035	21644
292.47141	21633
292.49246	21584
292.51349	21529
292.53455	21470
292.5556	21534
292.57666	21529
292.59769	21712
292.61874	21650
292.6398	21644
292.66086	21648
292.68188	21668
292.70294	21886
292.724	22002
292.74506	22038
292.76608	22072
292.78714	21982
292.8082	21920
292.82922	21976
292.85028	22085
292.87134	22250
292.89236	22517
292.91342	22647
292.93448	22582
292.95551	22630
292.97656	22682
292.99762	22699
293.01865	22611
293.0397	22719
293.06073	22768
293.08179	22727
293.10284	22610
293.12387	22619
293.14493	22514
293.16595	22570
293.18701	22473
293.20804	22312
293.2291	22287
293.25015	22314
293.27118	22520
293.29224	22569
293.31326	22504
293.33432	22369
293.35535	22551
293.3764	22800
293.39743	23005
293.41849	22924
293.43951	22869
293.46057	22963
293.4816	22930
293.50266	22939
293.52368	22898
293.54471	22930
293.56577	22991
293.58679	22810
293.60785	22800
293.62888	22920
293.64993	22974
293.67096	23067
293.69199	22944
293.71304	22984
293.73407	22992
293.75513	22934
293.77615	22728
293.79718	22614
293.81824	22635
293.83926	22575
293.86029	22815
293.88135	23045
293.90237	23128
293.9234	22956
293.94446	22743
293.96548	22833
293.98651	22905
294.00757	22963
294.02859	23117
294.04962	23118
294.07065	23299
294.09171	23158
294.11273	23061
294.13376	23299
294.15479	23380
294.17584	23427
294.19687	23508
294.2179	23553
294.23892	23490
294.25998	23495
294.28101	23341
294.30203	23355
294.32306	23506
294.34409	23635
294.36514	23605
294.38617	23680
294.4072	23846
294.42822	24022
294.44925	23919
294.47028	23913
294.4913	23971
294.51236	23982
294.53339	23962
294.55441	24120
294.57544	24167
294.59647	24227
294.61749	24235
294.63852	24141
294.65955	23961
294.68057	24055
294.7016	24179
294.72263	24305
294.74368	24425
294.76471	24397
294.78574	24330
294.80676	24182
294.82779	24232
294.84882	24256
294.86984	24379
294.89087	24359
294.9119	24400
294.93292	24378
294.95395	24298
294.97498	24321
294.996	24408
295.01703	24428
295.03806	24260
295.05905	24347
295.08008	24530
295.1011	24505
295.12213	24698
295.14316	24609
295.16418	24463
295.18521	24265
295.20624	24118
295.22726	24055
295.24829	24026
295.26932	23933
295.29031	23963
295.31134	24108
295.33237	24317
295.35339	24313
295.37442	24120
295.39545	24126
295.41644	24097
295.43747	24112
295.4585	24345
295.47952	24520
295.50055	24813
295.52158	24774
295.54257	24585
295.5636	24543
295.58463	24774
295.60565	24766
295.62665	24811
295.64767	24918
295.6687	24946
295.68973	24974
295.71072	24703
295.73175	24550
295.75278	24498
295.77377	24492
295.7948	24611
295.81583	24882
295.83685	25151
295.85785	25118
295.87888	25052
295.8999	24909
295.9209	24999
295.94193	25108
295.96295	25159
295.98395	25348
296.00497	25598
296.02597	25554
296.047	25426
296.06802	25322
296.08902	25312
296.11005	25291
296.13104	25226
296.15207	25312
296.1731	25298
296.19409	25259
296.21512	25056
296.23611	25120
296.25714	25208
296.27814	25106
296.29916	25238
296.32016	25392
296.34119	25399
296.36218	25395
296.38321	25244
296.40421	25251
296.42523	25423
296.44623	25670
296.46725	25622
296.48825	25671
296.50928	25750
296.53027	25709
296.5513	25682
296.5723	25489
296.59332	25311
296.61432	25323
296.63531	25331
296.65634	25518
296.67734	25607
296.69836	25824
296.71936	25897
296.74036	25936
296.76138	25896
296.78238	25901
296.80338	25971
296.8244	26103
296.8454	26139
296.86639	26106
296.88742	26097
296.90842	26081
296.92941	26162
296.95044	26155
296.97144	26280
296.99243	26404
297.01346	26617
297.03445	26591
297.05545	26446
297.07645	26409
297.09747	26371
297.11847	26648
297.13947	26794
297.16046	26988
297.18149	27166
297.20248	27197
297.22348	27245
297.24448	27231
297.2655	27316
297.2865	27218
297.3075	27115
297.32849	27317
297.34949	27334
297.37048	27294
297.39151	27165
297.41251	27245
297.4335	27303
297.4545	27101
297.47549	26859
297.49649	26805
297.51749	26780
297.53851	26778
297.55951	26805
297.58051	26934
297.6015	26853
297.6225	27000
297.64349	27126
297.66449	27364
297.68549	27286
297.70648	27225
297.72748	27496
297.74847	27548
297.76947	27509
297.79047	27471
297.81146	27491
297.83246	27600
297.85345	27607
297.87445	27265
297.89545	27229
297.91644	27307
297.93744	27353
297.95844	27409
297.97943	27354
298.00043	27435
298.02142	27284
298.04242	27266
298.06342	27235
298.08441	27344
298.10541	27549
298.1264	27649
298.1474	27637
298.16837	27753
298.18936	27691
298.21036	27619
298.23135	27533
298.25235	27592
298.27335	27606
298.29434	27669
298.31531	27708
298.3363	27687
298.3573	27704
298.3783	27684
298.39929	27706
298.42029	27963
298.44125	28024
298.46225	28058
298.48325	28119
298.50424	28023
298.52521	27953
298.5462	28039
298.5672	28168
298.5882	28471
298.60919	28671
298.63016	28742
298.65115	28735
298.67215	28727
298.69312	28713
298.71411	28750
298.73511	28666
298.75607	28749
298.77707	28761
298.79807	28489
298.81906	28363
298.84003	28227
298.86102	27924
298.88199	27429
298.90298	27035
298.92398	26807
298.94495	26938
298.96594	27058
298.98694	27086
299.0079	27240
299.0289	26937
299.04987	26795
299.07086	27049
299.09186	27271
299.11282	27094
299.13382	27137
299.15479	27193
299.17578	27221
299.19675	27192
299.21774	27202
299.23871	27131
299.2597	27170
299.28067	27151
299.30167	26844
299.32263	26960
299.34363	27048
299.36459	27111
299.38559	27035
299.40656	26958
299.42755	27185
299.44852	27035
299.46951	26819
299.49048	26594
299.51144	26547
299.53244	26464
299.55341	26635
299.5744	26780
299.59537	26937
299.61633	26906
299.63733	26612
299.65829	26603
299.67929	26575
299.70026	26596
299.72122	26765
299.74222	26955
299.76318	27120
299.78415	27190
299.80515	26979
299.82611	27041
299.84708	27158
299.86807	27333
299.88904	27443
299.91	27354
299.93097	27376
299.95197	27184
299.97293	27037
299.9939	27028
300.01486	27210
300.03586	27385
300.05682	27334
300.07779	27187
300.09875	27485
300.11975	27755
300.14072	27811
300.16168	27644
300.18265	27586
300.20361	27541
300.22461	27612
300.24557	27701
300.26654	27809
300.28751	27895
300.30847	28015
300.32944	27912
300.3504	27824
300.3714	27700
300.39236	27691
300.41333	27704
300.4343	28003
300.45526	28042
300.47623	27851
300.49719	27872
300.51816	28027
300.53912	28185
300.56009	28172
300.58105	28137
300.60202	27989
300.62299	27971
300.64398	27858
300.66495	27903
300.68591	27959
300.70688	28019
300.72784	27895
300.74881	27967
300.76978	28202
300.79071	28287
300.81168	28359
300.83264	28302
300.85361	28186
300.87457	28086
300.89554	28067
300.9165	27737
300.93747	27595
300.95844	27409
300.9794	27356
301.00037	27513
301.02133	27545
301.0423	27653
301.06326	27499
301.0842	27369
301.10516	27257
301.12613	27188
301.14709	27323
301.16806	27604
301.18903	27973
301.20996	28262
301.23093	28053
301.25189	27926
301.27286	28018
301.29382	28186
301.31476	28142
301.33572	28242
301.35669	28357
301.37766	28368
301.39862	28246
301.41956	27770
301.44052	27655
301.46149	27600
301.48245	27678
301.50339	28000
301.52435	28401
301.54532	28606
301.56625	28450
301.58722	28288
301.60818	28301
301.62912	28597
301.65009	28786
301.67105	29068
301.69199	29208
301.71295	29363
301.73392	29239
301.75485	29085
301.77582	29116
301.79678	29020
301.81772	28907
301.83868	28922
301.85962	28949
301.88058	28899
301.90155	28855
301.92249	28779
301.94345	28622
301.96439	28673
301.98535	28869
302.00629	28811
302.02725	28876
302.04819	28835
302.06915	28504
302.09009	28495
302.11105	28477
302.13199	28815
302.15295	28987
302.17389	29249
302.19485	29339
302.21579	29386
302.23676	29361
302.25769	29203
302.27866	28910
302.29959	28784
302.32056	28784
302.34149	28915
302.36243	28997
302.38339	29285
302.40433	29083
302.42529	29094
302.44623	29080
302.46716	28965
302.48813	28908
302.50906	28865
302.53	28948
302.55096	29018
302.5719	28977
302.59283	29048
302.6138	28913
302.63474	28774
302.65567	28703
302.67664	28777
302.69757	29098
302.71851	29218
302.73947	29208
302.76041	29050
302.78134	28993
302.80228	28941
302.82324	29103
302.84418	29289
302.86511	29501
302.88605	29773
302.90701	29718
302.92795	29576
302.94888	29725
302.96982	29848
302.99075	29915
303.01172	30067
303.03265	30070
303.05359	30099
303.07452	29978
303.09546	29969
303.11639	29963
303.13733	29855
303.15829	29679
303.17923	29484
303.20016	29413
303.2211	29339
303.24203	29347
303.26297	29641
303.28391	29692
303.30484	29604
303.32578	29678
303.34671	29956
303.36765	30056
303.38858	29917
303.40952	29935
303.43048	30214
303.45142	30337
303.47235	30165
303.49329	30082
303.51422	30231
303.53516	30316
303.55609	30077
303.577	29834
303.59793	29836
303.61887	30036
303.6398	30037
303.66074	29973
303.68167	29890
303.70261	30030
303.72354	29845
303.74448	29742
303.76541	29751
303.78635	29970
303.80728	30096
303.82822	30180
303.84912	30110
303.87006	30210
303.89099	30082
303.91193	29952
303.93286	30015
303.9538	29926
303.97473	29931
303.99564	30168
304.01657	30289
304.03751	30203
304.05844	30092
304.07938	30074
304.10028	30166
304.12122	30440
304.14215	30626
304.16309	30715
304.18399	30665
304.20493	30550
304.22586	30218
304.2468	30087
304.2677	30241
304.28864	30491
304.30957	30803
304.33047	30953
304.35141	30983
304.37234	31240
304.39328	31155
304.41418	31039
304.43512	30901
304.45605	30793
304.47696	30760
304.49789	30550
304.5188	30602
304.53973	30627
304.56067	30651
304.58157	30550
304.60251	30329
304.62341	30476
304.64435	30782
304.66528	30997
304.68619	31176
304.70712	31160
304.72803	30884
304.74896	31015
304.76987	31162
304.7908	31505
304.81171	31503
304.83264	31444
304.85355	31511
304.87448	31704
304.89539	31630
304.91632	31409
304.93723	31222
304.95816	31458
304.97906	31300
305	31320
305.0209	31327
305.04184	31461
305.06274	31689
305.08368	31891
305.10458	32310
305.12549	32283
305.14642	32167
305.16733	31854
305.18826	31545
305.20917	31528
305.23007	31468
305.25101	31799
305.27191	31996
305.29282	32182
305.31375	32071
305.33466	31772
305.35556	31665
305.3765	31738
305.3974	31807
305.4183	31924
305.43924	32284
305.46014	32375
305.48105	32534
305.50195	32217
305.52289	32236
305.54379	32441
305.5647	32547
305.5856	32703
305.60654	32529
305.62744	32489
305.64835	32631
305.66925	32401
305.69016	32226
305.71109	32207
305.73199	32074
305.7529	32207
305.7738	32532
305.79471	32662
305.81561	32843
305.83655	32822
305.85745	32784
305.87836	33024
305.89926	33161
305.92017	33170
305.94107	33278
305.96198	33397
305.98288	33275
306.00378	33201
306.02469	33250
306.04562	33374
306.06653	33300
306.08743	33303
306.10834	33339
306.12924	33260
306.15015	33294
306.17105	33201
306.19196	33050
306.21286	33000
306.23376	33260
306.25467	33429
306.27557	33405
306.29648	33377
306.31738	33005
306.33829	32937
306.35919	33005
306.38007	33357
306.40097	33246
306.42188	33267
306.44278	33444
306.46368	33507
306.48459	33665
306.50549	33418
306.5264	33169
306.5473	33056
306.56821	32780
306.58908	32478
306.60999	32184
306.63089	32195
306.65179	32030
306.6727	31915
306.6936	32010
306.71448	32065
306.73538	32093
306.75629	32086
306.77719	32050
306.7981	31995
306.81897	32079
306.83987	32288
306.86078	32498
306.88168	32953
306.90256	33053
306.92346	32986
306.94437	32801
306.96527	32947
306.98615	33194
307.00705	33258
307.02795	33307
307.04883	33326
307.06973	33217
307.09064	32899
307.11151	32613
307.13242	32559
307.15332	32535
307.17419	32654
307.1951	32968
307.216	33438
307.23688	33482
307.25778	33253
307.27866	32939
307.29956	33083
307.32047	33299
307.34134	33671
307.36224	33999
307.38312	34052
307.40402	34229
307.4249	34028
307.4458	33906
307.46667	33985
307.48758	33780
307.50848	33666
307.52936	33820
307.55026	33780
307.57114	33792
307.59201	33944
307.61292	33826
307.63379	33867
307.65469	33876
307.67557	33885
307.69647	33759
307.71735	33753
307.73825	33701
307.75912	33423
307.78	33511
307.8009	33547
307.82178	33607
307.84268	33974
307.86356	34111
307.88443	34367
307.90533	34319
307.92621	34205
307.94708	34310
307.96799	34162
307.98886	34162
308.00974	34254
308.03064	34252
308.05151	34569
308.07239	34641
308.09329	34630
308.11417	34536
308.13504	34457
308.15594	34521
308.17682	34259
308.19769	34380
308.21857	34246
308.23944	34258
308.26035	34415
308.28122	34439
308.30209	34170
308.32297	34057
308.34387	33995
308.36475	34400
308.38562	34594
308.40649	34544
308.42737	34455
308.44824	34193
308.46915	34144
308.49002	34056
308.51089	34431
308.53177	34608
308.55264	34961
308.57352	35248
308.59439	34918
308.61526	35025
308.63614	34901
308.65704	35000
308.67792	35246
308.69879	35350
308.71967	35256
308.74054	35323
308.76141	35099
308.78229	35157
308.80316	35280
308.82404	34964
308.84491	34564
308.86578	34193
308.88666	34385
308.90753	34525
308.92841	34700
308.94928	34854
308.97015	34960
308.99103	34925
309.0119	34913
309.03278	35449
309.05362	35433
309.07449	35205
309.09537	35161
309.11624	35676
309.13712	35557
309.15799	35546
309.17886	35409
309.19974	35784
309.22061	35610
309.24146	35398
309.26233	35238
309.2832	35115
309.30408	35331
309.32495	35499
309.34583	35381
309.36667	35537
309.38754	35634
309.40842	35277
309.42929	35009
309.45013	34929
309.47101	35141
309.49188	35211
309.51276	35252
309.5336	35348
309.55447	35193
309.57535	35106
309.59622	35066
309.61707	35021
309.63794	35043
309.65881	34869
309.67966	35224
309.70053	35164
309.72141	35142
309.74225	35150
309.76312	35098
309.784	35268
309.80484	35248
309.82571	35552
309.84659	35754
309.86743	36010
309.88831	35524
309.90915	35504
309.93002	35370
309.9509	35580
309.97174	35954
309.99261	35799
310.01346	36054
310.03433	35988
310.05518	36334
310.07605	36295
310.09689	36184
310.11777	36171
310.13861	36183
310.15948	36179
310.18033	35982
310.2012	35982
310.22205	36199
310.24292	36130
310.26376	36012
310.28464	35780
310.30548	35717
310.32635	35977
310.3472	36246
310.36804	36386
310.38892	36425
310.40976	36107
310.43063	35782
310.45148	36155
310.47232	36357
310.49319	36260
310.51404	36147
310.53488	36253
310.55576	36017
310.5766	36293
310.59744	36043
310.61832	35887
310.63916	36062
310.66	35732
310.68088	35846
310.70172	36165
310.72256	36316
310.74341	36280
310.76428	36313
310.78513	36551
310.80597	36477
310.82681	36298
310.84769	35775
310.86853	35763
310.88937	35622
310.91022	35565
310.93109	35758
310.95193	36132
310.97278	36063
310.99362	36128
311.01447	35806
311.03531	35906
311.05618	35875
311.07703	35792
311.09787	36170
311.11871	36409
311.13956	36722
311.1604	36768
311.18124	36374
311.20209	36590
311.22293	36689
311.24377	36805
311.26465	36682
311.28549	36695
311.30634	36711
311.32718	36677
311.34802	36433
311.36887	36386
311.38971	36065
311.41055	36091
311.4314	36269
311.45224	36517
311.47308	36663
311.49393	37154
311.51477	37110
311.53561	36987
311.55646	37164
311.5773	37009
311.59811	37328
311.61896	37386
311.6398	37442
311.66064	37646
311.68149	37510
311.70233	37524
311.72318	37554
311.74402	37341
311.76486	37371
311.78571	37403
311.80652	37340
311.82736	37456
311.84821	37156
311.86905	37015
311.88989	37154
311.91071	37033
311.93155	37328
311.95239	37489
311.97324	37222
311.99408	37097
312.01489	36683
312.03574	36877
312.05658	37078
312.07742	37383
312.09824	37396
312.11908	37303
312.13992	37681
312.16077	37844
312.18158	37699
312.20242	37202
312.22327	37260
312.24408	37085
312.26492	37015
312.28577	36672
312.30658	36731
312.32742	36366
312.34827	36446
312.36908	36716
312.38992	36668
312.41074	36689
312.43158	36714
312.45242	36511
312.47324	36293
312.49408	36450
312.51489	36882
312.53574	37122
312.55658	37567
312.57739	37931
312.59824	37521
312.61905	37601
312.63989	37309
312.66071	37872
312.68155	37614
312.70236	37862
312.72321	37738
312.74402	37541
312.76486	37263
312.78568	36961
312.80652	36692
312.82733	36956
312.84814	37115
312.86899	37430
312.8898	37583
312.91064	37631
312.93146	37257
312.95227	37183
312.97311	37366
312.99393	37575
313.01477	38039
313.03558	38188
313.0564	38265
313.07724	38441
313.09805	38095
313.11887	38108
313.13971	38094
313.16052	38116
313.18134	37942
313.20218	38030
313.22299	37834
313.2438	37829
313.26462	37834
313.28546	38071
313.30627	37808
313.32709	37967
313.3479	37933
313.36874	37645
313.38956	37732
313.41037	37552
313.43118	37589
313.452	37543
313.47284	37588
313.49365	38061
313.51447	38212
313.53528	38203
313.55609	38402
313.5769	38217
313.59775	38164
313.61856	38057
313.63937	38165
313.66019	38179
313.681	38146
313.70181	38380
313.72263	38350
313.74344	38383
313.76425	38354
313.78506	38391
313.80591	38245
313.82672	38130
313.84753	37977
313.86835	37846
313.88916	37783
313.90997	37711
313.93079	37598
313.9516	37847
313.97241	37470
313.99323	37344
314.01404	37235
314.03485	37814
314.05566	37896
314.07645	37781
314.09726	37649
314.11807	37995
314.13889	37756
314.1597	37470
314.18051	37767
314.20132	37810
314.22214	38089
314.24295	38536
314.26376	38307
314.28455	38341
314.30536	38670
314.32617	38554
314.34698	38602
314.3678	38484
314.38861	38567
314.40939	38376
314.43021	38364
314.45102	38252
314.47183	38327
314.49265	38404
314.51343	37858
314.53424	37674
314.55505	37744
314.57587	37794
314.59665	37819
314.61746	38051
314.63828	38289
314.65909	38082
314.67987	38414
314.70068	38316
314.7215	38830
314.74228	38470
314.76309	38643
314.78391	38790
314.80469	38734
314.8255	38895
314.84631	38814
314.8671	38664
314.88791	38676
314.90869	38566
314.9295	38365
314.95032	38505
314.9711	38469
314.99191	38416
315.0127	38542
315.03351	38577
315.05429	38494
315.0751	38009
315.09592	37841
315.1167	37439
315.13751	37710
315.15829	37515
315.17911	37611
315.19989	37548
315.2207	37650
315.24149	37576
315.26227	37469
315.28308	37725
315.30386	37693
315.32468	37708
315.34546	37999
315.36627	38010
315.38705	38029
315.40784	37892
315.42865	37860
315.44943	37736
315.47025	38205
315.49103	38199
315.51181	38347
315.53262	38480
315.55341	38341
315.57419	38217
315.595	38184
315.61578	38280
315.63657	38323
315.65738	38594
315.67816	38240
315.69894	38509
315.71976	38679
315.74054	38806
315.76132	38660
315.7821	38816
315.80292	38900
315.8237	38793
315.84448	38942
315.86526	39044
315.88605	39124
315.90686	39207
315.92764	39020
315.94843	39179
315.96921	38777
315.98999	39242
316.0108	39076
316.03159	39304
316.05237	39136
316.07315	39044
316.09393	38807
316.11472	39007
316.1355	39003
316.15628	39050
316.17706	38892
316.19788	38814
316.21866	38914
316.23944	38721
316.26022	38655
316.28101	38867
316.30179	38862
316.32257	38578
316.34335	38736
316.36414	38693
316.38492	38833
316.4057	38914
316.42648	38548
316.44727	38515
316.46805	38138
316.48883	38196
316.50961	37800
316.5304	37917
316.55118	37939
316.57196	38105
316.59271	38157
316.61349	38187
316.63428	38359
316.65506	37951
316.67584	38241
316.69662	38000
316.71741	38068
316.73819	38441
316.75897	38804
316.77972	38890
316.80051	39186
316.82129	39079
316.84207	38853
316.86285	39329
316.88361	39043
316.90439	39012
316.92517	39140
316.94595	39036
316.96674	38790
316.98749	38814
317.00827	38472
317.02905	38570
317.04984	38705
317.07059	38584
317.09137	38660
317.11215	39153
317.1329	39130
317.15369	39341
317.17447	39314
317.19522	39287
317.216	39376
317.23679	39718
317.25754	39534
317.27832	39923
317.2991	40111
317.31985	39892
317.34064	40137
317.36139	40086
317.38217	40024
317.40295	39724
317.42371	39646
317.44449	39614
317.46524	39656
317.48602	39946
317.50677	39687
317.52756	39894
317.54831	40016
317.56909	40103
317.58984	40164
317.61063	39897
317.63138	39998
317.65216	39494
317.67291	39421
317.6937	39291
317.71445	39684
317.73523	39655
317.75598	39915
317.77676	40291
317.79752	40193
317.81827	40502
317.83905	40157
317.8598	40040
317.88058	39853
317.90134	40011
317.92209	39846
317.94287	40027
317.96362	39621
317.98438	39378
318.00516	39320
318.02591	39384
318.04666	39519
318.06744	39480
318.0882	39352
318.10895	39617
318.12973	39176
318.15048	39585
318.17123	39607
318.19199	40102
318.21277	40264
318.23352	40523
318.25427	40204
318.27502	40334
318.29581	40299
318.31656	40135
318.33731	40535
318.35806	40363
318.37881	40383
318.39957	40121
318.42035	40118
318.4411	40203
318.46185	39829
318.4826	40229
318.50336	40230
318.52411	40453
318.54486	40831
318.56561	40344
318.5864	40398
318.60715	40211
318.6279	40566
318.64865	40452
318.6694	40905
318.69016	40918
318.71091	41297
318.73166	40978
318.75241	40939
318.77316	41138
318.79391	41308
318.81467	41465
318.83542	41635
318.85617	41355
318.87692	41464
318.89767	41219
318.91843	41323
318.93918	41156
318.95993	41277
318.98068	40917
319.0014	41001
319.02216	40722
319.04291	40942
319.06366	40886
319.08441	41026
319.10516	40976
319.12592	41252
319.14667	41254
319.16739	41182
319.18814	41524
319.20889	41575
319.22964	41567
319.2504	41797
319.27115	42024
319.29187	41752
319.31262	41813
319.33337	41802
319.35413	41544
319.37485	41887
319.3956	41943
319.41635	42097
319.4371	41744
319.45782	41965
319.47858	41768
319.49933	41858
319.52005	41592
319.5408	41624
319.56155	41612
319.58231	41711
319.60303	41632
319.62378	41306
319.6445	41521
319.66525	41293
319.686	41236
319.70673	41511
319.72748	41680
319.74823	41568
319.76895	41692
319.7897	41707
319.81042	41507
319.83118	41546
319.8519	41377
319.87265	42031
319.89337	41948
319.91412	42047
319.93488	42023
319.9556	42058
319.97635	42036
319.99707	41955
320.01782	42051
320.03854	41852
320.05927	41974
320.08002	41963
320.10074	41773
320.12149	41848
320.14221	42108
320.16296	41577
320.18369	41528
320.20441	41623
320.22516	41558
320.24588	41712
320.26663	41868
320.28735	42076
320.30807	41777
320.32883	41949
320.34955	41961
320.37027	42177
320.39102	41813
320.41174	42118
320.43246	41761
320.45322	42143
320.47394	42104
320.49466	41952
320.51538	41929
320.53613	41845
320.55685	41663
320.57758	41565
320.5983	41227
320.61905	41510
320.63977	41397
320.66049	41275
320.68121	41263
320.70193	41041
320.72269	40946
320.74341	40567
320.76413	40448
320.78485	40188
320.80557	40186
320.82629	40373
320.84705	40388
320.86777	40346
320.88849	40435
320.90921	40448
320.92993	40734
320.95065	40371
320.97137	40519
320.9921	40788
321.01282	40625
321.03354	40921
321.05426	40668
321.07498	40274
321.0957	40562
321.11642	40769
321.13715	41085
321.15787	41244
321.17859	41067
321.19931	41242
321.22003	41105
321.24075	40606
321.26147	40874
321.2822	40611
321.30292	40585
321.32364	40872
321.34436	40877
321.36508	41228
321.3858	41479
321.40652	41358
321.42725	41357
321.44794	41383
321.46866	41315
321.48938	41504
321.5101	41603
321.53082	41742
321.55154	41861
321.57224	41795
321.59296	41862
321.61368	41498
321.6344	41469
321.65512	41173
321.67581	41502
321.69653	41594
321.71725	41202
321.73798	41298
321.75867	41191
321.77939	41206
321.80011	41179
321.82083	41328
321.84152	41143
321.86224	41089
321.88297	41019
321.90366	40992
321.92438	41189
321.9451	41169
321.96579	41268
321.98651	41431
322.00723	41292
322.02792	41547
322.04865	41301
322.06934	41470
322.09006	40961
322.11078	40842
322.13147	40768
322.15219	40842
322.17288	40774
322.1936	40684
322.21429	40660
322.23502	40634
322.25571	40577
322.27643	40490
322.29712	40845
322.31784	40635
322.33853	40518
322.35925	40668
322.37994	40959
322.40067	41089
322.42136	41640
322.44208	41329
322.46277	41618
322.48349	41459
322.50418	41371
322.52487	41150
322.54559	41279
322.56628	41228
322.58701	41670
322.6077	41308
322.62839	41342
322.64911	41224
322.6698	40658
322.69049	40988
322.71121	41000
322.7319	41025
322.75259	41341
322.77332	41722
322.79401	41664
322.8147	41454
322.83539	41096
322.85611	41298
322.8768	41641
322.89749	41700
322.91818	41653
322.9389	41799
322.95959	41766
322.98029	41497
323.00098	41590
323.02167	41578
323.04239	41690
323.06308	41664
323.08377	41544
323.10446	41861
323.12515	41717
323.14584	41852
323.16653	41587
323.18726	41675
323.20795	41738
323.22864	41431
323.24933	41429
323.27002	41629
323.29071	41466
323.3114	41590
323.33209	41222
323.35278	41248
323.37347	41724
323.39417	41662
323.41486	41756
323.43555	41752
323.45624	41915
323.47693	41723
323.49762	41301
323.51831	41348
323.539	41409
323.55969	41222
323.58038	41230
323.60107	41230
323.62177	41238
323.64246	40935
323.66315	40853
323.68384	40953
323.7045	41175
323.72519	40873
323.74588	41502
323.76657	41012
323.78726	41587
323.80795	41454
323.82864	41945
323.8493	42059
323.87	42116
323.89069	42178
323.91138	42232
323.93207	41881
323.95273	42153
323.97342	41976
323.99411	42031
324.0148	42033
324.03546	41842
324.05615	41808
324.07684	41954
324.09753	41938
324.11819	42055
324.13889	42019
324.15958	42272
324.18024	42310
324.20093	42254
324.22162	42053
324.24228	42100
324.26297	41960
324.28366	42145
324.30432	42194
324.32501	42123
324.34567	42365
324.36636	42622
324.38705	42682
324.40771	42589
324.42841	42690
324.44907	42978
324.46976	43087
324.49042	42790
324.51111	42900
324.5318	42471
324.55246	42439
324.57315	42543
324.59381	42334
324.6145	41999
324.63516	42304
324.65582	42087
324.67651	42335
324.69717	42460
324.71786	42346
324.73853	42648
324.75922	42881
324.77988	42768
324.80054	42913
324.82123	42535
324.84189	43117
324.86258	43212
324.88324	42915
324.9039	43248
324.92459	43080
324.94525	42950
324.96591	42847
324.9866	43024
325.00726	42927
325.02792	42848
325.04861	42702
325.06927	42865
325.08994	43021
325.1106	42846
325.13129	42462
325.15195	42476
325.17261	42353
325.19327	42409
325.21396	42415
325.23462	42141
325.25528	41910
325.27594	42082
325.2966	42135
325.31729	41821
325.33795	42011
325.35861	41978
325.37927	41680
325.39993	41927
325.42059	41614
325.44125	41806
325.46194	41632
325.4826	41919
325.50327	41651
325.52393	41716
325.54459	41616
325.56525	41438
325.58591	41524
325.60657	41337
325.62723	41665
325.64789	41336
325.66855	41667
325.68921	41564
325.70987	41463
325.73053	41325
325.75119	41373
325.77185	41016
325.79251	41177
325.81317	41038
325.83383	41296
325.85449	41405
325.87515	41358
325.89581	41348
325.91647	41375
325.93713	41095
325.95776	41269
325.97842	40960
325.99908	41074
326.01974	41200
326.04041	40731
326.06107	41199
326.08173	40831
326.10236	41197
326.12302	41238
326.14368	41167
326.16434	41235
326.185	41300
326.20563	41103
326.22629	41107
326.24695	40764
326.26761	39862
326.28824	37836
