Date and Time:                Sat Nov 11 15:19:14.000 2023
Software Version:             4.31.30023.0
Temperature (C):              -40
Model:                        DU940P_BU2
Data Type:                    Counts
Acquisition Mode:             Single Scan
Trigger Mode:                 Internal
Exposure Time (secs):         0.02
Readout Mode:                 Full Vertical Binning
Horizontal binning:           1
Extended Dynamic Range:       off
Horizontally flipped:         false
Vertical Shift Speed (usecs): 14.51
Pixel Readout Rate (MHz):     3
Baseline Clamp:               ON
Clock Amplitude:              Normal
Output Amplifier:             High Capacity
Serial Number:                23634
Pre-Amplifier Gain:           1.000000
Spurious Noise Filter Mode:   No Filter
Photon counted:               false
Data Averaging Filter Mode:   No Filter
SR500i:
Serial Number:                
Wavelength (nm):              300
Grating Groove Density (l/mm):1199.47
Grating Blaze:                500
Output Flipper Port:          Direct
Accessory Output Port 1:      Off
Accessory Output Port 2:      Off
Accessory Output Port 3:      Off
Accessory Input Port:         On



278.45877	10060
278.47992	9525
278.50107	9633
278.52225	9671
278.5434	9666
278.56454	9684
278.58572	9719
278.60687	9739
278.62802	9730
278.6492	9682
278.67035	9739
278.6915	9748
278.71268	9730
278.73383	9732
278.75497	9726
278.77615	9771
278.7973	9790
278.81845	9794
278.83963	9777
278.86078	9825
278.88193	9782
278.90308	9766
278.92426	9801
278.9454	9789
278.96655	9797
278.9877	9831
279.00888	9846
279.03003	9885
279.05118	9849
279.07233	9892
279.09348	9899
279.11465	9897
279.1358	9911
279.15695	9882
279.1781	9909
279.19925	9940
279.22043	9948
279.24158	9981
279.26273	9957
279.28387	9995
279.30502	9977
279.32617	9972
279.34732	9984
279.3685	9989
279.38965	10000
279.4108	9999
279.43195	10039
279.45309	10048
279.47424	10070
279.49539	10033
279.51654	10136
279.53769	10079
279.55884	10107
279.58002	10128
279.60117	10124
279.62231	10118
279.64346	10141
279.66461	10166
279.68576	10173
279.70691	10226
279.72806	10193
279.74921	10199
279.77036	10212
279.7915	10269
279.81265	10237
279.8338	10235
279.85495	10277
279.8761	10271
279.89725	10238
279.9184	10261
279.93954	10300
279.96069	10314
279.98184	10269
280.00299	10295
280.02411	10357
280.04526	10401
280.06641	10368
280.08755	10369
280.1087	10399
280.12985	10398
280.151	10398
280.17215	10406
280.1933	10445
280.21445	10458
280.23557	10444
280.25671	10475
280.27786	10479
280.29901	10477
280.32016	10455
280.34131	10437
280.36246	10477
280.38358	10440
280.40472	10436
280.42587	10418
280.44702	10471
280.46817	10495
280.48929	10505
280.51044	10503
280.53159	10502
280.55273	10528
280.57388	10501
280.595	10485
280.61615	10527
280.6373	10513
280.65845	10535
280.67957	10564
280.70071	10574
280.72186	10601
280.74301	10626
280.76413	10571
280.78528	10645
280.80643	10618
280.82755	10612
280.84869	10615
280.86984	10647
280.89096	10618
280.91211	10631
280.93326	10664
280.95438	10716
280.97552	10757
280.99667	10732
281.01779	10737
281.03894	10774
281.06009	10762
281.08121	10759
281.10236	10723
281.12347	10805
281.14462	10745
281.16577	10716
281.18689	10711
281.20804	10758
281.22916	10822
281.25031	10805
281.27145	10823
281.29257	10840
281.31372	10820
281.33484	10852
281.35599	10845
281.37711	10797
281.39825	10849
281.41937	10852
281.44052	10916
281.46164	10930
281.48279	10973
281.50391	10939
281.52505	10945
281.54617	10958
281.56732	10983
281.58844	10923
281.60959	10938
281.63071	10991
281.65186	10980
281.67297	11020
281.69412	10987
281.71524	11048
281.73636	11031
281.75751	11101
281.77863	11000
281.79977	11066
281.82089	11063
281.84201	11052
281.86316	11065
281.88428	11095
281.90543	11100
281.92654	11082
281.94766	11133
281.96881	11151
281.98993	11156
282.01105	11211
282.0322	11137
282.05331	11148
282.07443	11164
282.09558	11140
282.1167	11225
282.13782	11251
282.15897	11233
282.18008	11236
282.2012	11232
282.22232	11264
282.24347	11269
282.26459	11233
282.28571	11263
282.30682	11246
282.32797	11271
282.34909	11340
282.37021	11297
282.39133	11389
282.41248	11357
282.43359	11353
282.45471	11391
282.47583	11383
282.49695	11379
282.5181	11363
282.53922	11384
282.56033	11424
282.58145	11391
282.60257	11427
282.62369	11418
282.64484	11420
282.66595	11508
282.68707	11502
282.70819	11501
282.72931	11519
282.75043	11479
282.77155	11532
282.79269	11531
282.81381	11537
282.83493	11550
282.85605	11591
282.87717	11543
282.89828	11598
282.9194	11592
282.94052	11638
282.96164	11643
282.98276	11639
283.00388	11656
283.02499	11697
283.04611	11711
283.06723	11649
283.08835	11694
283.10947	11725
283.13058	11782
283.1517	11727
283.17282	11712
283.19394	11717
283.21506	11763
283.23618	11718
283.25729	11762
283.27841	11731
283.29953	11727
283.32065	11802
283.34177	11806
283.36288	11842
283.384	11821
283.40512	11802
283.42624	11851
283.44736	11848
283.46844	11854
283.48956	11795
283.51068	11876
283.5318	11837
283.55292	11929
283.57404	11909
283.59515	11875
283.61627	11942
283.63736	11944
283.65848	11979
283.6796	11939
283.70071	11907
283.72183	11944
283.74295	11909
283.76404	11914
283.78516	11908
283.80627	11994
283.82739	11967
283.84851	12038
283.8696	12028
283.89072	12050
283.91183	12002
283.93295	11983
283.95404	12068
283.97516	12062
283.99628	12027
284.0174	12079
284.03848	12063
284.0596	12096
284.08072	12078
284.10181	12105
284.12292	12134
284.14404	12137
284.16513	12154
284.18625	12130
284.20737	12167
284.22849	12113
284.24957	12168
284.27069	12168
284.29178	12130
284.3129	12195
284.33401	12189
284.3551	12225
284.37622	12247
284.39734	12218
284.41843	12258
284.43954	12230
284.46063	12234
284.48175	12237
284.50287	12262
284.52396	12287
284.54507	12265
284.56616	12265
284.58728	12332
284.60837	12337
284.62949	12330
284.65057	12270
284.67169	12383
284.69278	12366
284.7139	12298
284.73499	12322
284.7561	12391
284.77719	12451
284.79831	12391
284.8194	12423
284.84052	12378
284.8616	12444
284.88272	12416
284.90381	12438
284.92493	12426
284.94601	12467
284.96713	12418
284.98822	12396
285.00931	12419
285.03043	12467
285.05151	12500
285.07263	12441
285.09372	12540
285.11484	12443
285.13593	12451
285.15701	12527
285.17813	12482
285.19922	12493
285.22031	12461
285.24142	12462
285.26251	12513
285.2836	12536
285.30472	12510
285.32581	12570
285.34689	12523
285.36801	12569
285.3891	12554
285.41019	12607
285.4313	12628
285.45239	12608
285.47348	12617
285.49457	12630
285.51569	12684
285.53677	12637
285.55786	12652
285.57895	12681
285.60007	12690
285.62115	12704
285.64224	12730
285.66333	12696
285.68445	12736
285.70554	12760
285.72662	12767
285.74771	12774
285.7688	12758
285.78989	12780
285.811	12759
285.83209	12770
285.85318	12815
285.87427	12776
285.89536	12805
285.91644	12762
285.93756	12872
285.95865	12771
285.97974	12894
286.00082	12893
286.02191	12877
286.043	12904
286.06409	12904
286.08517	12877
286.10626	12902
286.12735	12921
286.14844	12929
286.16956	12885
286.19064	12943
286.21173	12879
286.23282	12951
286.25391	12935
286.27499	12998
286.29608	12923
286.31717	12931
286.33826	12936
286.35934	12926
286.38043	12926
286.40152	12969
286.42261	12919
286.4437	12997
286.46478	12978
286.48587	13033
286.50696	13031
286.52802	13054
286.5491	12977
286.57019	12982
286.59128	12978
286.61237	13003
286.63345	12980
286.65454	13020
286.67563	13066
286.69672	13108
286.7178	13193
286.73889	13154
286.75995	13159
286.78104	13179
286.80212	13123
286.82321	13199
286.8443	13121
286.86539	13196
286.88644	13240
286.90753	13255
286.92862	13236
286.94971	13251
286.97079	13255
286.99188	13256
287.01294	13304
287.03403	13265
287.05511	13300
287.0762	13359
287.09726	13288
287.11835	13350
287.13943	13350
287.16052	13394
287.18158	13431
287.20267	13384
287.22375	13447
287.24484	13433
287.2659	13428
287.28699	13440
287.30807	13430
287.32913	13456
287.35022	13470
287.37131	13509
287.39236	13515
287.41345	13513
287.43454	13530
287.4556	13576
287.47668	13563
287.49777	13568
287.51883	13535
287.53992	13544
287.56097	13581
287.58206	13525
287.60315	13597
287.62421	13648
287.64529	13713
287.66635	13676
287.68744	13683
287.70853	13668
287.72958	13679
287.75067	13706
287.77173	13733
287.79282	13709
287.81387	13707
287.83496	13686
287.85602	13811
287.87711	13778
287.89816	13814
287.91925	13761
287.94031	13787
287.9614	13790
287.98245	13786
288.00354	13851
288.0246	13885
288.04568	13869
288.06674	13872
288.08783	13833
288.10889	13865
288.12994	13893
288.15103	13877
288.17209	13885
288.19318	13923
288.21423	13973
288.23529	13919
288.25638	13966
288.27744	13980
288.29852	13929
288.31958	13936
288.34064	13765
288.36172	13725
288.38278	13705
288.40384	13568
288.42493	13456
288.44598	13320
288.46704	13243
288.48813	13135
288.50919	12954
288.53024	12890
288.55133	12835
288.57239	12736
288.59344	12595
288.6145	12486
288.63559	12426
288.65665	12320
288.6777	12220
288.69876	12110
288.71985	12000
288.74091	11923
288.76196	11795
288.78302	11733
288.80411	11624
288.82516	11508
288.84622	11409
288.86728	11358
288.88834	11333
288.90942	11266
288.93048	11182
288.95154	11194
288.9726	11217
288.99365	11166
289.01471	11146
289.03577	11182
289.05685	11235
289.07791	11266
289.09897	11245
289.12003	11267
289.14108	11262
289.16214	11225
289.1832	11305
289.20425	11245
289.22531	11304
289.24637	11342
289.26743	11320
289.28851	11296
289.30957	11351
289.33063	11423
289.35168	11320
289.37274	11403
289.3938	11438
289.41486	11386
289.43591	11481
289.45697	11406
289.47803	11411
289.49908	11361
289.52014	11452
289.5412	11494
289.56226	11511
289.58331	11547
289.60437	11563
289.6254	11546
289.64645	11492
289.66751	11551
289.68857	11494
289.70963	11527
289.73068	11532
289.75174	11588
289.7728	11586
289.79385	11593
289.81491	11636
289.83594	11708
289.85699	11739
289.87805	11681
289.89911	11686
289.92017	11710
289.94122	11742
289.96228	11778
289.98331	11764
290.00436	11794
290.02542	11781
290.04648	11871
290.06754	11885
290.08856	11878
290.10962	11818
290.13068	11801
290.15173	11914
290.17279	11895
290.19382	11885
290.21487	11957
290.23593	11947
290.25696	11979
290.27802	12029
290.29907	11992
290.32013	12060
290.34116	12029
290.36221	12036
290.38327	12062
290.4043	12119
290.42535	12156
290.44641	12103
290.46744	12167
290.48849	12199
290.50955	12186
290.53058	12167
290.55164	12258
290.57269	12307
290.59372	12316
290.61478	12312
290.63583	12362
290.65686	12346
290.67792	12367
290.69894	12439
290.72	12449
290.74103	12475
290.76208	12560
290.78314	12564
290.80417	12602
290.82523	12642
290.84625	12703
290.86731	12765
290.88834	12808
290.90939	12803
290.93042	12850
290.95148	12848
290.9725	12944
290.99356	12965
291.01459	12994
291.03564	12995
291.05667	12976
291.07773	12951
291.09875	13023
291.11981	13051
291.14084	13019
291.16187	13026
291.18292	13038
291.20395	13007
291.22501	13051
291.24603	13066
291.26706	13068
291.28812	13045
291.30914	13057
291.3302	13077
291.35123	12994
291.37225	13007
291.39331	13031
291.41434	13081
291.43536	13045
291.45642	13022
291.47745	13022
291.49847	13029
291.51953	13018
291.54056	13050
291.56158	13076
291.58264	13122
291.60367	13126
291.62469	13085
291.64572	13088
291.66678	13132
291.68781	13187
291.70883	13177
291.72986	13239
291.75092	13188
291.77194	13168
291.79297	13180
291.814	13176
291.83505	13163
291.85608	13143
291.87711	13128
291.89813	13085
291.91916	13164
291.94019	13192
291.96124	13162
291.98227	13225
292.0033	13231
292.02432	13249
292.04535	13236
292.06638	13229
292.0874	13251
292.10846	13308
292.12949	13312
292.15051	13336
292.17154	13307
292.19257	13295
292.21359	13314
292.23462	13333
292.25565	13256
292.27667	13233
292.2977	13260
292.31873	13257
292.33975	13311
292.36078	13305
292.38181	13252
292.40283	13298
292.42386	13350
292.44489	13348
292.46591	13378
292.48694	13368
292.50797	13352
292.52899	13298
292.55002	13365
292.57104	13336
292.59207	13353
292.6131	13365
292.63412	13340
292.65515	13370
292.67618	13449
292.6972	13393
292.71823	13349
292.73926	13316
292.76028	13365
292.78131	13209
292.80231	13235
292.82333	13307
292.84436	13309
292.86539	13253
292.88641	13243
292.90744	13226
292.92847	13196
292.94946	13209
292.97049	13158
292.99152	13163
293.01254	13150
293.03357	13122
293.05457	13067
293.07559	13094
293.09662	13132
293.11765	13062
293.13864	13120
293.15967	13136
293.18069	13171
293.20172	13124
293.22272	13096
293.24374	13154
293.26477	13124
293.2858	13041
293.30679	13129
293.32782	13136
293.34885	13262
293.36984	13295
293.39087	13240
293.4119	13248
293.43289	13277
293.45392	13252
293.47495	13282
293.49594	13279
293.51697	13328
293.53799	13336
293.55899	13325
293.58002	13419
293.60101	13475
293.62204	13458
293.64307	13471
293.66406	13426
293.68509	13482
293.70609	13486
293.72711	13510
293.74814	13515
293.76913	13558
293.79016	13577
293.81116	13562
293.83218	13661
293.85318	13713
293.87421	13747
293.8952	13668
293.91623	13654
293.93723	13770
293.95825	13731
293.97925	13774
294.00027	13794
294.02127	13865
294.0423	13842
294.06329	13875
294.08429	13926
294.10532	13970
294.12631	13949
294.14734	13936
294.16833	14004
294.18936	14024
294.21036	13990
294.23135	14029
294.25238	14012
294.27338	14069
294.29437	14066
294.3154	14039
294.3364	14064
294.35742	14136
294.37842	14104
294.39941	14143
294.42044	14216
294.44144	14169
294.46243	14173
294.48343	14206
294.50446	14242
294.52545	14226
294.54645	14343
294.56747	14287
294.58847	14328
294.60947	14359
294.63046	14355
294.65149	14353
294.67249	14455
294.69348	14363
294.71448	14399
294.73547	14395
294.7565	14441
294.7775	14514
294.79849	14494
294.81949	14509
294.84048	14594
294.86151	14548
294.88251	14588
294.9035	14571
294.9245	14568
294.9455	14573
294.96649	14641
294.98752	14550
295.00851	14581
295.02951	14661
295.05051	14626
295.0715	14661
295.0925	14694
295.11349	14749
295.13449	14713
295.15549	14758
295.17648	14777
295.19748	14798
295.21848	14812
295.23947	14825
295.26047	14925
295.28149	14874
295.30249	14877
295.32349	14871
295.34448	14825
295.36548	14924
295.38647	14984
295.40747	14995
295.42844	15060
295.44943	15051
295.47043	15119
295.49142	15091
295.51242	15209
295.53342	15245
295.55441	15213
295.57541	15195
295.59641	15166
295.6174	15217
295.6384	15277
295.65939	15290
295.68039	15221
295.70135	15306
295.72235	15240
295.74335	15284
295.76434	15351
295.78534	15396
295.80634	15406
295.82733	15395
295.8483	15350
295.86929	15455
295.89029	15417
295.91129	15450
295.93228	15491
295.95325	15554
295.97424	15494
295.99524	15546
296.01624	15577
296.03723	15649
296.0582	15676
296.07919	15611
296.10019	15633
296.12115	15558
296.14215	15558
296.16315	15631
296.18414	15696
296.20511	15706
296.2261	15701
296.2471	15729
296.26807	15734
296.28906	15763
296.31006	15831
296.33102	15788
296.35202	15760
296.37302	15775
296.39398	15755
296.41498	15774
296.43597	15867
296.45694	15897
296.47794	15937
296.4989	15974
296.5199	15931
296.54089	15950
296.56186	15910
296.58286	16015
296.60382	16009
296.62482	15951
296.64578	15930
296.66678	15960
296.68774	16014
296.70874	16082
296.72971	16120
296.7507	16105
296.77167	16041
296.79266	16146
296.81363	16105
296.83463	16148
296.85559	16155
296.87659	16173
296.89755	16157
296.91855	16193
296.93951	16250
296.96051	16265
296.98148	16277
297.00244	16285
297.02344	16202
297.0444	16311
297.0654	16351
297.08636	16391
297.10733	16387
297.12833	16424
297.14929	16401
297.17029	16482
297.19125	16580
297.21222	16519
297.23322	16575
297.25418	16592
297.27515	16580
297.29614	16567
297.31711	16604
297.33807	16653
297.35904	16655
297.38004	16605
297.401	16664
297.42197	16634
297.44296	16692
297.46393	16772
297.48489	16803
297.50586	16835
297.52686	16879
297.54782	16886
297.56879	16892
297.58975	16955
297.61072	16969
297.63171	16991
297.65268	16963
297.67365	16924
297.69461	17010
297.71558	17093
297.73654	17037
297.75754	17043
297.7785	17094
297.79947	17085
297.82043	17071
297.8414	17101
297.86237	17097
297.88333	17184
297.9043	17174
297.92526	17175
297.94626	17211
297.96722	17198
297.98819	17206
298.00916	17137
298.03012	17168
298.05109	17246
298.07205	17216
298.09302	17230
298.11398	17305
298.13495	17321
298.15591	17388
298.17688	17378
298.19785	17350
298.21881	17294
298.23978	17314
298.26074	17306
298.28171	17301
298.30267	17405
298.32364	17414
298.3446	17370
298.36557	17458
298.38654	17453
298.40747	17454
298.42844	17565
298.4494	17579
298.47037	17579
298.49133	17569
298.5123	17566
298.53326	17632
298.55423	17597
298.5752	17678
298.59613	17677
298.6171	17730
298.63806	17767
298.65903	17746
298.67999	17716
298.70093	17816
298.72189	17798
298.74286	17831
298.76382	17891
298.78479	17954
298.80573	17972
298.82669	18010
298.84766	17916
298.86862	18026
298.88956	18083
298.91052	18070
298.93149	18002
298.95245	18078
298.97339	18059
298.99435	17990
299.01532	18039
299.03625	18133
299.05722	18170
299.07819	18197
299.09912	18134
299.12009	18242
299.14105	18166
299.16199	18193
299.18295	18242
299.20392	18262
299.22485	18338
299.24582	18315
299.26675	18323
299.28772	18441
299.30869	18469
299.32962	18402
299.35059	18432
299.37152	18485
299.39249	18540
299.41342	18577
299.43439	18578
299.45535	18597
299.47629	18560
299.49725	18571
299.51819	18650
299.53915	18765
299.56009	18764
299.58105	18790
299.60199	18814
299.62296	18833
299.64389	18791
299.66483	18831
299.68579	18855
299.70673	18967
299.72769	18983
299.74863	19020
299.76959	18945
299.79053	19082
299.81146	19089
299.83243	19092
299.85336	19147
299.87433	19278
299.89526	19247
299.9162	19138
299.93716	19195
299.9581	19169
299.97903	19202
300	19254
300.02094	19253
300.04187	19432
300.06284	19491
300.08377	19485
300.10471	19475
300.12567	19588
300.14661	19581
300.16754	19583
300.18848	19642
300.20944	19715
300.23038	19787
300.25131	19680
300.27225	19765
300.29321	19735
300.31415	19698
300.33508	19696
300.35602	19698
300.37698	19630
300.39792	19583
300.41885	19511
300.43979	19590
300.46072	19673
300.48166	19709
300.50262	19743
300.52356	19705
300.54449	19799
300.56543	19827
300.58636	19772
300.6073	19764
300.62823	19815
300.64917	19822
300.67014	19801
300.69107	19839
300.71201	19872
300.73294	19900
300.75388	19885
300.77481	19870
300.79575	19885
300.81668	19918
300.83762	19904
300.85855	19872
300.87949	19894
300.90042	19975
300.92136	19967
300.94229	19983
300.96323	20009
300.98416	20092
301.0051	20060
301.02603	20059
301.04697	20145
301.0679	20095
301.08884	20115
301.10977	20187
301.13071	20218
301.15161	20310
301.17255	20225
301.19348	20338
301.21442	20392
301.23535	20488
301.25629	20478
301.27722	20382
301.29816	20497
301.31906	20447
301.34	20393
301.36093	20483
301.38187	20464
301.4028	20550
301.42374	20576
301.44464	20564
301.46558	20625
301.48651	20660
301.50745	20675
301.52838	20707
301.54929	20770
301.57022	20767
301.59116	20720
301.61209	20724
301.633	20719
301.65393	20732
301.67487	20589
301.69577	20785
301.71671	20798
301.73764	20757
301.75858	20783
301.77948	20827
301.80042	20829
301.82135	20882
301.84225	20806
301.86319	20792
301.88409	20903
301.90503	20958
301.92596	20943
301.94687	20931
301.9678	20922
301.98874	20973
302.00964	20947
302.03058	20889
302.05148	21000
302.07242	20957
302.09332	20922
302.11426	20961
302.13519	21003
302.1561	21039
302.17703	21079
302.19794	21018
302.21887	21036
302.23978	21161
302.26071	21093
302.28162	21109
302.30255	21178
302.32346	21127
302.34439	21199
302.3653	21188
302.38623	21277
302.40714	21285
302.42804	21363
302.44897	21290
302.46988	21334
302.49081	21367
302.51172	21284
302.53262	21344
302.55356	21408
302.57446	21427
302.5954	21431
302.6163	21421
302.63721	21457
302.65814	21484
302.67905	21565
302.69995	21601
302.72089	21587
302.74179	21571
302.7627	21521
302.78363	21589
302.80453	21646
302.82544	21659
302.84634	21658
302.86728	21696
302.88818	21802
302.90909	21761
302.92999	21751
302.95093	21713
302.97183	21829
302.99274	21763
303.01364	21826
303.03458	21781
303.05548	21804
303.07639	21864
303.09729	21831
303.11819	21925
303.13913	22017
303.16003	22086
303.18094	22057
303.20184	22044
303.22275	22039
303.24365	22024
303.26456	22120
303.28546	22097
303.3064	22171
303.3273	22285
303.34821	22229
303.36911	22213
303.39001	22260
303.41092	22326
303.43182	22281
303.45273	22263
303.47363	22267
303.49454	22384
303.51544	22333
303.53635	22420
303.55725	22450
303.57816	22499
303.59906	22476
303.61996	22543
303.64087	22485
303.66177	22566
303.68268	22507
303.70358	22486
303.72449	22515
303.74539	22549
303.7663	22591
303.7872	22672
303.80811	22739
303.82901	22753
303.84991	22741
303.87079	22842
303.89169	22758
303.9126	22851
303.9335	22809
303.95441	22863
303.97531	22891
303.99622	22901
304.01709	22942
304.03799	22923
304.0589	23012
304.0798	23049
304.10071	23027
304.12161	22967
304.14249	23132
304.16339	23005
304.1843	22980
304.2052	23043
304.22607	22985
304.24698	23084
304.26788	23118
304.28879	23056
304.30966	23060
304.33057	23116
304.35147	23068
304.37234	23142
304.39325	23089
304.41415	23089
304.43503	23109
304.45593	23132
304.47684	23148
304.49771	23292
304.51862	23278
304.53952	23288
304.56039	23306
304.5813	23361
304.6022	23288
304.62308	23266
304.64398	23429
304.66486	23379
304.68576	23273
304.70667	23434
304.72754	23416
304.74844	23507
304.76932	23529
304.79022	23522
304.8111	23569
304.832	23566
304.85287	23578
304.87378	23559
304.89465	23622
304.91556	23627
304.93643	23626
304.95734	23680
304.97821	23735
304.99911	23817
305.01999	23718
305.04089	23734
305.06177	23738
305.08264	23808
305.10355	23828
305.12442	23807
305.14532	23838
305.1662	23940
305.18707	23877
305.20798	23962
305.22885	23995
305.24976	24033
305.27063	24034
305.2915	24083
305.31241	24021
305.33328	24085
305.35416	24027
305.37506	24105
305.39594	24204
305.41681	24156
305.43768	24239
305.45859	24255
305.47946	24393
305.50034	24376
305.52124	24264
305.54211	24323
305.56299	24414
305.58386	24344
305.60477	24319
305.62564	24400
305.64651	24490
305.66739	24478
305.68826	24477
305.70917	24464
305.73004	24536
305.75092	24529
305.77179	24529
305.79266	24623
305.81354	24507
305.83441	24418
305.85532	24464
305.87619	24387
305.89706	24540
305.91794	24571
305.93881	24705
305.95969	24815
305.98056	24834
306.00143	24729
306.02231	24761
306.04318	24767
306.06406	24799
306.08493	24798
306.10583	24761
306.12671	24857
306.14758	24894
306.16846	24910
306.18933	24916
306.21021	24993
306.23108	24917
306.25195	24956
306.2728	24923
306.29367	24880
306.31454	24959
306.33542	24893
306.35629	24910
306.37717	24963
306.39804	25006
306.41891	25161
306.43979	25083
306.46066	25105
306.48154	25128
306.50241	25094
306.52325	25054
306.54413	25122
306.565	25247
306.58588	25235
306.60675	25145
306.62762	25293
306.64847	25309
306.66934	25289
306.69022	25297
306.71109	25304
306.73196	25332
306.75281	25352
306.77368	25313
306.79456	25301
306.81543	25403
306.83627	25392
306.85715	25346
306.87802	25431
306.8989	25630
306.91974	25483
306.94061	25464
306.96149	25545
306.98233	25525
307.0032	25544
307.02408	25574
307.04492	25678
307.0658	25699
307.08667	25771
307.10751	25724
307.12839	25751
307.14926	25758
307.1701	25770
307.19098	25817
307.21185	25854
307.2327	25746
307.25357	25791
307.27441	25863
307.29529	25866
307.31613	25983
307.33701	25988
307.35785	25956
307.37872	26086
307.3996	26067
307.42044	26042
307.44131	26056
307.46216	26071
307.48303	26092
307.50388	26089
307.52475	26014
307.54559	26088
307.56644	26158
307.58731	26185
307.60815	26187
307.62903	26114
307.64987	26151
307.67075	26270
307.69159	26158
307.71243	26134
307.73331	26202
307.75415	26236
307.77502	26129
307.79587	26250
307.81671	26303
307.83759	26292
307.85843	26376
307.87927	26336
307.90015	26350
307.92099	26372
307.94183	26323
307.96271	26353
307.98355	26369
308.00439	26453
308.02524	26446
308.04611	26481
308.06696	26511
308.0878	26576
308.10864	26541
308.12952	26560
308.15036	26623
308.1712	26571
308.19205	26564
308.21292	26565
308.23376	26607
308.25461	26663
308.27545	26713
308.2963	26729
308.31714	26807
308.33801	26853
308.35886	26787
308.3797	26952
308.40054	26802
308.42139	26882
308.44223	26895
308.46307	26929
308.48392	26954
308.50479	26972
308.52563	26991
308.54648	27004
308.56732	27077
308.58817	27091
308.60901	27006
308.62985	27056
308.6507	27075
308.67154	27112
308.69238	27081
308.71323	27160
308.73407	27268
308.75491	27166
308.77576	27217
308.7966	27293
308.81744	27350
308.83829	27329
308.85913	27240
308.87997	27235
308.90082	27334
308.92166	27355
308.94247	27328
308.96332	27380
308.98416	27457
309.005	27372
309.02585	27462
309.04669	27471
309.06754	27457
309.08838	27442
309.10919	27406
309.13004	27423
309.15088	27500
309.17172	27517
309.19257	27490
309.21341	27585
309.23422	27652
309.25507	27747
309.27591	27734
309.29675	27788
309.31757	27759
309.33841	27796
309.35925	27684
309.3801	27696
309.40091	27730
309.42175	27734
309.4426	27808
309.46344	27808
309.48425	27945
309.5051	28012
309.52594	27957
309.54675	28022
309.5676	28010
309.58844	28010
309.60925	27969
309.6301	28051
309.65094	28018
309.67175	28099
309.6926	28177
309.71341	28149
309.73425	28294
309.7551	28227
309.77591	28310
309.79675	28340
309.81757	28360
309.83841	28334
309.85922	28309
309.88007	28375
309.90088	28547
309.92172	28458
309.94254	28473
309.96338	28654
309.98419	28535
310.00504	28550
310.02585	28477
310.04669	28551
310.0675	28408
310.08835	28446
310.10916	28324
310.13	28518
310.15082	28566
310.17166	28533
310.19247	28458
310.21329	28592
310.23413	28584
310.25494	28640
310.27579	28542
310.2966	28675
310.31741	28660
310.33826	28621
310.35907	28616
310.37988	28667
310.40073	28736
310.42154	28742
310.44235	28684
310.4632	28687
310.48401	28789
310.50482	28710
310.52563	28724
310.54648	28743
310.56729	28848
310.5881	28818
310.60892	28841
310.62976	28886
310.65057	28983
310.67139	28939
310.6922	28909
310.71304	28893
310.73386	28974
310.75467	28963
310.77548	28901
310.7963	29010
310.81711	28989
310.83795	29004
310.85876	28992
310.87958	29130
310.90039	29191
310.9212	29312
310.94202	29251
310.96283	29358
310.98364	29320
311.00446	29270
311.02527	29321
311.04611	29400
311.06693	29501
311.08774	29460
311.10855	29531
311.12936	29616
311.15018	29677
311.17099	29719
311.1918	29635
311.21262	29755
311.23343	29808
311.25424	29818
311.27505	29777
311.29587	29930
311.31668	29865
311.33749	29962
311.35831	29958
311.37909	29969
311.3999	30032
311.42072	30029
311.44153	29999
311.46234	30072
311.48315	30068
311.50397	30070
311.52478	30151
311.54559	30176
311.56638	30328
311.58719	30288
311.608	30345
311.62881	30406
311.64963	30458
311.67044	30419
311.69122	30474
311.71204	30428
311.73285	30409
311.75366	30379
311.77444	30430
311.79526	30459
311.81607	30481
311.83688	30546
311.85767	30542
311.87848	30608
311.89929	30637
311.9201	30600
311.94089	30685
311.9617	30647
311.98251	30754
312.0033	30689
312.02411	30734
312.04492	30861
312.0657	30924
312.08652	30877
312.10733	30788
312.12811	30832
312.14893	30972
312.16971	30842
312.19052	30907
312.21133	30956
312.23212	31023
312.25293	31044
312.27371	30998
312.29453	31098
312.31531	31315
312.33612	31173
312.3569	31308
312.37772	31275
312.39853	31222
312.41931	31255
312.44009	31226
312.46091	31379
312.48169	31413
312.5025	31403
312.52328	31487
312.5441	31552
312.56488	31643
312.58569	31580
312.60648	31668
312.62729	31666
312.64807	31613
312.66885	31575
312.68967	31603
312.71045	31559
312.73123	31701
312.75204	31634
312.77283	31731
312.79364	31853
312.81442	31760
312.83521	32002
312.85602	31795
312.8768	31947
312.89758	31911
312.91837	31907
312.93918	31960
312.95996	31986
312.98074	32093
313.00156	31980
313.02234	32071
313.04312	31990
313.0639	32066
313.08472	32004
313.1055	32074
313.12628	32060
313.14706	32034
313.16785	32079
313.18866	32029
313.20944	32306
313.23022	32231
313.25101	32347
313.27179	32206
313.29257	32320
313.31335	32393
313.33417	32416
313.35495	32420
313.37573	32404
313.39651	32296
313.4173	32175
313.43808	32223
313.45886	32404
313.47964	32282
313.50043	32410
313.52121	32275
313.54199	32396
313.56277	32471
313.58356	32369
313.60434	32320
313.62512	32437
313.6459	32437
313.66669	32308
313.68747	32352
313.70825	32446
313.72903	32519
313.74982	32313
313.7706	32415
313.79138	32559
313.81216	32422
313.83295	32482
313.85373	32394
313.87451	32353
313.89529	32534
313.91605	32408
313.93683	32681
313.95761	32561
313.97839	32700
313.99918	32630
314.01996	32659
314.04074	32642
314.06149	32724
314.08228	32631
314.10306	32729
314.12384	32721
314.14462	32803
314.16537	32730
314.18616	32673
314.20694	32872
314.22772	32788
314.24847	32811
314.26926	32826
314.29004	32868
314.31082	32909
314.33157	32892
314.35236	32965
314.37314	32886
314.39389	33015
314.41467	32887
314.43546	33048
314.45621	32972
314.47699	33065
314.49777	32970
314.51852	33019
314.53931	33083
314.56006	33077
314.58084	33009
314.60162	33127
314.62238	33230
314.64316	33102
314.66391	33286
314.68469	33183
314.70544	32958
314.72623	33205
314.74701	33167
314.76776	33027
314.78854	33139
314.8093	33202
314.83008	33153
314.85083	33266
314.87161	33106
314.89236	33431
314.91312	33276
314.9339	33235
314.95465	33319
314.97543	33287
314.99619	33412
315.01697	33285
315.03772	33297
315.05847	33403
315.07925	33305
315.10001	33354
315.12079	33351
315.14154	33513
315.16229	33551
315.18307	33430
315.20383	33553
315.22458	33571
315.24536	33557
315.26611	33592
315.28687	33603
315.30765	33736
315.3284	33574
315.34915	33806
315.3699	33695
315.39069	33901
315.41144	33772
315.43219	33858
315.45294	33802
315.47372	33988
315.49448	33858
315.51523	33869
315.53598	33915
315.55673	34095
315.57751	33938
315.59827	34001
315.61902	34070
315.63977	34264
315.66052	34113
315.68127	34005
315.70206	34163
315.72281	34100
315.74356	34166
315.76431	34154
315.78506	34305
315.80582	34192
315.82657	34217
315.84732	34220
315.86807	34191
315.88882	34140
315.90958	34159
315.93033	34226
315.95108	34192
315.97183	33906
315.99258	34114
316.01334	34020
316.03409	33988
316.05484	34165
316.07559	34122
316.09634	34006
316.1171	34087
316.13785	34164
316.1586	34284
316.17935	34171
316.2001	34151
316.22086	34286
316.24161	34313
316.26236	34184
316.28311	34259
316.30383	34200
316.32458	34187
316.34534	34304
316.36609	34074
316.38684	34302
316.40759	34375
316.42831	34414
316.44907	34340
316.46982	34270
316.49057	34386
316.51132	34473
316.53204	34515
316.5528	34526
316.57355	34538
316.5943	34597
316.61502	34674
316.63577	34501
316.65652	34585
316.67728	34474
316.698	34757
316.71875	34855
316.7395	34712
316.76022	34773
316.78098	34911
316.80173	34908
316.82245	34888
316.8432	34999
316.86395	34946
316.88467	34882
316.90543	34933
316.92615	34980
316.9469	35059
316.96765	35023
316.98837	34946
317.00912	35112
317.02985	35023
317.0506	35088
317.07132	35075
317.09207	35269
317.11279	35074
317.13354	35107
317.15427	35180
317.17502	35261
317.19574	35330
317.21649	35326
317.23721	35343
317.25797	35362
317.27869	35240
317.29944	35139
317.32016	35500
317.34091	35255
317.36163	35307
317.38235	35271
317.40311	35325
317.42383	35293
317.44458	35521
317.4653	35331
317.48602	35541
317.50677	35458
317.5275	35565
317.54822	35447
317.56897	35583
317.58969	35462
317.61041	35673
317.63116	35464
317.65189	35637
317.67261	35686
317.69333	35469
317.71408	35811
317.7348	35682
317.75552	35613
317.77625	35674
317.797	35860
317.81772	35778
317.83844	35767
317.85916	35628
317.87991	35691
317.90063	35846
317.92136	35802
317.94208	35817
317.9628	35867
317.98352	35894
318.00424	35920
318.02499	35956
318.04572	35933
318.06644	36032
318.08716	35993
318.10788	35920
318.1286	36178
318.14932	36089
318.17004	36167
318.19077	36097
318.21149	36246
318.23221	36345
318.25293	36162
318.27365	36167
318.2944	36434
318.31512	36281
318.33585	36426
318.35654	36274
318.37726	36297
318.39798	36547
318.4187	36380
318.43942	36467
318.46014	36598
318.48087	36721
318.50159	36610
318.52231	36536
318.54303	36610
318.56375	36653
318.58447	36486
318.60519	36587
318.62589	36741
318.64661	36801
318.66733	36597
318.68805	36700
318.70877	36686
318.72949	36778
318.75021	36532
318.7709	37023
318.79163	36561
318.81235	36960
318.83307	36763
318.85376	37004
318.87448	36903
318.8952	36894
318.91592	36975
318.93661	37035
318.95734	36891
318.97806	37092
318.99878	36913
319.01947	36974
319.04019	37001
319.06091	36941
319.0816	37058
319.10233	37245
319.12305	37131
319.14374	37109
319.16446	37081
319.18518	37284
319.20587	37229
319.22659	37295
319.24728	37251
319.26801	37359
319.28873	37236
319.30942	37397
319.33014	37395
319.35083	37309
319.37155	37385
319.39224	37512
319.41296	37481
319.43365	37392
319.45438	37425
319.47507	37504
319.49579	37573
319.51648	37415
319.5372	37648
319.55789	37365
319.57861	37504
319.5993	37799
319.62003	37734
319.64072	37592
319.66141	37979
319.68213	37682
319.70282	37816
319.72354	37822
319.74423	37693
319.76492	37869
319.78564	37989
319.80634	37797
319.82703	37929
319.84775	37603
319.86844	38091
319.88913	38096
319.90985	37776
319.93054	38102
319.95123	38018
319.97195	38016
319.99265	38015
320.01334	38223
320.03403	38204
320.05475	38108
320.07544	38050
320.09613	38244
320.11682	38458
320.13751	38366
320.15823	38062
320.17892	38247
320.19962	38202
320.22031	38287
320.241	38372
320.26169	38237
320.28241	38193
320.3031	38351
320.32379	38420
320.34448	38195
320.36517	38364
320.38586	38360
320.40656	38142
320.42725	38430
320.44794	38194
320.46863	38413
320.48935	38224
320.51004	38614
320.53073	38408
320.55142	38480
320.57211	38452
320.5928	38333
320.61349	38434
320.63419	38258
320.65488	38539
320.67557	38203
320.69626	38432
320.71692	38332
320.73761	38358
320.7583	38334
320.77899	38512
320.79968	38321
320.82037	38523
320.84106	38391
320.86176	38519
320.88245	38527
320.90314	38495
320.9238	38489
320.94449	38617
320.96518	38511
320.98587	38809
321.00656	38575
321.02725	38764
321.04791	38924
321.0686	38547
321.08929	39019
321.10999	38655
321.13068	38927
321.15134	38925
321.17203	38864
321.19272	38968
321.21338	39038
321.23407	38826
321.25476	38947
321.27545	38846
321.29611	38270
321.3168	36693
