Date and Time:                Wed Apr 6 13:42:29.000 2022
Software Version:             4.31.30023.0
Temperature (C):              -40
Model:                        DU940P_BU2
Data Type:                    Counts
Acquisition Mode:             Single Scan
Trigger Mode:                 Internal
Exposure Time (secs):         1200
Readout Mode:                 Full Vertical Binning
Horizontal binning:           1
Extended Dynamic Range:       off
Horizontally flipped:         false
Vertical Shift Speed (usecs): 14.51
Pixel Readout Rate (MHz):     3
Baseline Clamp:               ON
Clock Amplitude:              Normal
Output Amplifier:             High Capacity
Serial Number:                23634
Pre-Amplifier Gain:           1.000000
Spurious Noise Filter Mode:   No Filter
Photon counted:               false
Data Averaging Filter Mode:   No Filter
SR500i:
Serial Number:                
Wavelength (nm):              279
Grating Groove Density (l/mm):2400
Grating Blaze:                BH
Output Flipper Port:          Direct
Accessory Output Port 1:      Off
Accessory Output Port 2:      Off
Accessory Output Port 3:      Off
Accessory Input Port:         On



269.07523	2716
269.08499	2612
269.09479	2464
269.10455	2387
269.11432	2521
269.12411	2482
269.13388	2330
269.14365	2419
269.15344	2267
269.16321	2314
269.17297	2384
269.18277	2605
269.19254	2410
269.2023	2416
269.2121	2316
269.22186	2325
269.23163	2432
269.24142	2226
269.25119	2664
269.26096	2323
269.27072	2315
269.28052	2316
269.29028	2467
269.30005	2299
269.30984	2262
269.31961	2418
269.32938	2314
269.33914	2224
269.34894	2101
269.3587	2196
269.36847	2072
269.37823	2243
269.388	2211
269.3978	2290
269.40756	2304
269.41733	2446
269.42709	2303
269.43689	2366
269.44666	2372
269.45642	2480
269.46619	2168
269.47595	2348
269.48575	2166
269.49551	2196
269.50528	2372
269.51505	2316
269.52481	2240
269.53458	2106
269.54437	2389
269.55414	2155
269.5639	2134
269.57367	2175
269.58344	2221
269.5932	2295
269.60297	2323
269.61273	2338
269.62253	2254
269.63229	2469
269.64206	2242
269.65182	2069
269.66159	2280
269.67136	2067
269.68112	2570
269.69089	2051
269.70065	2152
269.71042	2044
269.72021	2192
269.72998	2191
269.73975	2489
269.74951	2201
269.75928	2160
269.76904	2164
269.77881	2494
269.78857	2096
269.79834	2265
269.80811	2289
269.81787	2225
269.82764	1993
269.8374	2125
269.84717	2184
269.85693	1984
269.8667	2201
269.87646	1984
269.88623	2059
269.896	1960
269.90576	2051
269.91553	2005
269.92529	2082
269.93506	2039
269.94482	2152
269.95459	2072
269.96436	1971
269.97412	2094
269.98389	2050
269.99365	2015
270.00342	1889
270.01318	2190
270.02292	1994
270.03268	1931
270.04245	1927
270.05222	1925
270.06198	1825
270.07175	1953
270.08151	2010
270.09128	1828
270.10104	1933
270.11081	1885
270.12054	1953
270.13031	2189
270.14008	2324
270.14984	1848
270.15961	1890
270.16937	1900
270.17914	1813
270.18887	2010
270.19864	1913
270.2084	1861
270.21817	2037
270.22794	1917
270.2377	2024
270.24744	1734
270.2572	1810
270.26697	1838
270.27673	1907
270.2865	1827
270.29626	2145
270.306	1899
270.31577	1778
270.32553	1835
270.3353	2083
270.34503	1866
270.3548	1879
270.36456	1720
270.37433	1822
270.38406	1879
270.39383	1756
270.40359	1750
270.41336	1727
270.4231	1649
270.43286	1702
270.44263	1886
270.45239	1656
270.46213	1712
270.47189	1859
270.48166	1707
270.49139	2004
270.50116	1658
270.51093	1671
270.52069	1766
270.53043	2066
270.54019	1777
270.54996	1826
270.55969	1725
270.56946	1707
270.57922	1810
270.58896	1654
270.59872	1737
270.60849	1689
270.61823	1733
270.62799	1682
270.63773	2088
270.64749	1701
270.65726	1652
270.66699	1595
270.67676	1686
270.68652	1712
270.69626	1692
270.70602	1733
270.71576	1585
270.72552	1895
270.73529	1652
270.74503	1609
270.75479	1645
270.76453	1588
270.77429	1640
270.78403	1607
270.79379	1544
270.80353	1557
270.81329	1604
270.82306	1986
270.83279	1524
270.84256	1630
270.85229	1785
270.86206	1700
270.8718	1933
270.88156	1759
270.8913	1596
270.90106	1731
270.9108	1661
270.92056	1647
270.9303	1840
270.94006	1652
270.9498	1725
270.95956	1620
270.9693	1606
270.97906	1952
270.9888	1603
270.99857	1543
271.0083	1661
271.01804	1682
271.0278	1632
271.03754	1587
271.0473	1633
271.05704	1619
271.0668	1566
271.07654	1608
271.08627	1655
271.09604	1551
271.10577	1535
271.11554	1859
271.12527	1844
271.13501	1674
271.14478	1622
271.15451	1554
271.16428	1570
271.17401	1872
271.18375	1554
271.19351	1575
271.20325	1486
271.21298	1585
271.22275	1557
271.23248	1865
271.24222	1676
271.25198	1681
271.26172	1572
271.27145	1596
271.28122	1667
271.29095	1551
271.30069	1613
271.31046	1528
271.32019	1817
271.32993	2288
271.33969	1672
271.34943	2329
271.35916	1571
271.3689	1640
271.37866	1621
271.3884	1497
271.39813	1726
271.4079	1596
271.41763	1654
271.42737	1467
271.4371	1961
271.44684	1536
271.4566	1583
271.46634	1557
271.47607	1605
271.48581	1513
271.49557	1469
271.50531	1831
271.51505	1551
271.52478	1664
271.53452	1479
271.54428	1555
271.55402	1775
271.56375	1638
271.57349	1451
271.58322	1485
271.59299	1578
271.60272	1542
271.61246	1554
271.62219	1746
271.63193	1653
271.64166	1587
271.6514	2236
271.66116	1777
271.6709	1574
271.68063	1645
271.69037	1495
271.7001	1575
271.70984	1794
271.71957	1619
271.72931	1628
271.73904	1595
271.74881	1510
271.75854	1529
271.76828	1545
271.77802	1687
271.78775	1672
271.79749	1671
271.80722	1713
271.81696	1532
271.82669	1563
271.83643	1532
271.84616	1555
271.8559	1577
271.86563	1659
271.87537	1504
271.8851	1498
271.89484	1550
271.90457	1650
271.91431	1506
271.92404	1661
271.93378	1536
271.94351	1500
271.95325	1541
271.96298	1524
271.97272	1588
271.98245	1582
271.99219	1536
272.00192	1626
272.01166	1650
272.02139	1670
272.03113	1547
272.04086	1536
272.0506	1546
272.06033	1576
272.07007	1668
272.0798	1552
272.08954	1908
272.09927	1744
272.10901	1566
272.11874	1561
272.12845	1494
272.13818	1534
272.14792	1558
272.15765	1581
272.16739	1472
272.17712	1698
272.18686	1563
272.19659	1748
272.2063	1573
272.21603	1467
272.22577	1474
272.2355	1468
272.24524	1460
272.25497	1522
272.26471	1477
272.27441	1724
272.28415	1481
272.29388	1490
272.30362	1470
272.31335	2060
272.32306	1421
272.33279	1490
272.34253	1599
272.35226	1846
272.362	1631
272.3717	1968
272.38144	1580
272.39117	1589
272.40091	1534
272.41064	1664
272.42035	2598
272.43008	1762
272.43982	1514
272.44955	1517
272.45926	1471
272.46899	1523
272.47873	1481
272.48846	1529
272.49817	1531
272.5079	1505
272.51764	1499
272.52734	1477
272.53708	1802
272.54681	1585
272.55652	1438
272.56625	1482
272.57599	1472
272.58572	1461
272.59543	1405
272.60516	1615
272.6149	1821
272.6246	1511
272.63434	1707
272.64404	1410
272.65378	1470
272.66351	1458
272.67322	1513
272.68295	1547
272.69269	1433
272.70239	1587
272.71213	1538
272.72183	1500
272.73157	1488
272.7413	1367
272.75101	1500
272.76074	1614
272.77045	1516
272.78018	1500
272.78992	1830
272.79962	1495
272.80936	1479
272.81906	1444
272.8288	1466
272.8385	1511
272.84824	1501
272.85797	1594
272.86768	1513
272.87741	1862
272.88712	1580
272.89685	1529
272.90656	1549
272.91629	1524
272.92599	1438
272.93573	1542
272.94543	1462
272.95517	1456
272.96487	1493
272.97461	1915
272.98431	1479
272.99405	1471
273.00375	3124
273.01349	1496
273.02319	1635
273.0329	1766
273.04263	1638
273.05234	1482
273.06207	1466
273.07178	1503
273.08151	1533
273.09122	1509
273.10092	1541
273.11066	1914
273.12036	1458
273.1301	1552
273.1398	1463
273.14954	1471
273.15924	1861
273.16895	1664
273.17868	1505
273.18839	1514
273.19809	1835
273.20782	1645
273.21753	1580
273.22726	1792
273.23697	1465
273.24667	1491
273.25641	1562
273.26611	1512
273.27582	1884
273.28555	1649
273.29526	1536
273.30496	1469
273.31467	1565
273.3244	1564
273.33411	1739
273.34381	1578
273.35355	1660
273.36325	1723
273.37296	1573
273.38269	1597
273.3924	1531
273.4021	1819
273.4118	1560
273.42154	1596
273.43124	1764
273.44095	1552
273.45065	1553
273.46039	1635
273.47009	1734
273.4798	2136
273.4895	1555
273.49924	1654
273.50894	1585
273.51865	1801
273.52835	1630
273.53806	1869
273.54779	2067
273.5575	1996
273.5672	1542
273.5769	1709
273.58661	1599
273.59631	1586
273.60605	1857
273.61575	1541
273.62546	1643
273.63516	1760
273.64487	1629
273.65457	1615
273.66428	1758
273.67401	1510
273.68372	1566
273.69342	1586
273.70313	1611
273.71283	1549
273.72253	1583
273.73224	1583
273.74194	1583
273.75165	1473
273.76138	1774
273.77109	1654
273.78079	1638
273.7905	2114
273.8002	1574
273.80991	1496
273.81961	3525
273.82932	1515
273.83902	1745
273.84872	1552
273.85843	1853
273.86813	1584
273.87784	1622
273.88754	1870
273.89725	1729
273.90695	1573
273.91666	2176
273.92636	1569
273.93607	2014
273.94577	1595
273.95547	1600
273.96518	1553
273.97488	1580
273.98459	1605
273.99429	1509
274.004	1477
274.0137	1678
274.02341	1577
274.03311	1585
274.04282	1512
274.05252	1577
274.06223	1565
274.07193	2172
274.08163	2357
274.09134	1663
274.10104	1744
274.11072	1547
274.12042	1635
274.13013	1780
274.13983	1544
274.14954	1556
274.15924	1531
274.16895	1576
274.17865	1666
274.18835	1537
274.19803	1525
274.20773	1499
274.21744	1554
274.22714	1538
274.23685	1713
274.24655	1493
274.25623	1719
274.26593	1755
274.27563	1610
274.28534	1552
274.29504	1542
274.30475	1537
274.31442	2086
274.32413	1563
274.33383	1548
274.34354	1561
274.35324	1549
274.36292	1550
274.37262	1660
274.38232	1591
274.39203	1640
274.4017	1506
274.41141	1569
274.42111	1490
274.43082	1538
274.44049	1571
274.4502	1588
274.4599	1441
274.4696	1677
274.47928	1451
274.48898	1506
274.49869	1471
274.50836	1940
274.51807	1518
274.52777	1532
274.53745	1598
274.54715	1437
274.55685	1590
274.56656	1570
274.57623	1837
274.58594	1465
274.59564	1528
274.60532	1645
274.61502	1471
274.62469	1569
274.6344	1614
274.6441	1527
274.65378	1560
274.66348	1569
274.67319	1624
274.68286	1731
274.69257	1501
274.70224	1650
274.71194	1492
274.72165	1617
274.73132	1608
274.74103	1567
274.7507	1592
274.76041	1537
274.77011	1576
274.77979	1498
274.78949	1623
274.79916	1512
274.80887	1717
274.81854	1527
274.82825	1556
274.83792	1556
274.84763	1531
274.8573	1493
274.867	1548
274.87671	1488
274.88638	1478
274.89609	1689
274.90576	1476
274.91547	1606
274.92514	1518
274.93481	1612
274.94452	1693
274.95419	1626
274.9639	1569
274.97357	1584
274.98328	1523
274.99295	1593
275.00266	1586
275.01233	1583
275.02203	1863
275.03171	1594
275.04141	1555
275.05109	1853
275.06076	1531
275.07047	1812
275.08014	1680
275.08984	1562
275.09952	1601
275.10919	1557
275.1189	1601
275.12857	1570
275.13828	1551
275.14795	1498
275.15762	1517
275.16733	1509
275.177	1570
275.18668	1509
275.19638	1713
275.20605	1514
275.21573	1564
275.22543	1569
275.23511	1484
275.24478	1488
275.25449	1585
275.26416	1499
275.27383	1562
275.28354	1549
275.29321	1589
275.30289	1575
275.31259	1691
275.32227	1809
275.33194	2173
275.34161	1619
275.35132	1530
275.36099	1562
275.37067	1648
275.38034	1489
275.39005	1515
275.39972	1531
275.40939	1539
275.41907	1607
275.42877	1512
275.43845	1492
275.44812	1688
275.45779	1456
275.46747	1568
275.47717	1595
275.48685	1493
275.49652	1616
275.5062	1496
275.51587	1597
275.52557	1519
275.53525	1624
275.54492	1480
275.5546	1511
275.56427	1543
275.57394	1481
275.58365	1661
275.59332	1492
275.603	1923
275.61267	1557
275.62234	1469
275.63202	1677
275.64169	1469
275.65137	1554
275.66107	1578
275.67075	1577
275.68042	1513
275.69009	1497
275.69977	1865
275.70944	1526
275.71912	1474
275.72879	1491
275.73846	1491
275.74814	1550
275.75781	1528
275.76749	1572
275.77716	1522
275.78683	1490
275.79654	1462
275.80621	1501
275.81589	1839
275.82556	1764
275.83524	1662
275.84491	1677
275.85458	1747
275.86426	1740
275.87393	1584
275.88361	1608
275.89328	1470
275.90295	1471
275.91263	1514
275.9223	1595
275.93198	1480
275.94162	1775
275.95129	1560
275.96097	1811
275.97064	1557
275.98032	1446
275.98999	1739
275.99966	1579
276.00934	1503
276.01901	1915
276.02869	1585
276.03836	1543
276.04803	1530
276.05771	1513
276.06735	1495
276.07703	1711
276.0867	1504
276.09637	1608
276.10605	1613
276.11572	1560
276.1254	1513
276.13507	1559
276.14471	1553
276.15439	1523
276.16406	1629
276.17374	1676
276.18341	1452
276.19308	1459
276.20273	1713
276.2124	1529
276.22208	1488
276.23175	1477
276.24142	1573
276.2511	1638
276.26074	1471
276.27042	1468
276.28009	1532
276.28976	1755
276.29941	1430
276.30908	1760
276.31876	1444
276.32843	1717
276.33807	1687
276.34775	1593
276.35742	1507
276.3671	1501
276.37674	1530
276.38641	1513
276.39609	1549
276.40576	1578
276.41541	1968
276.42508	1575
276.43475	1647
276.4444	1931
276.45407	1584
276.46375	1528
276.47339	1619
276.48306	2738
276.49274	1426
276.50238	1905
276.51205	1815
276.52173	1708
276.53137	1884
276.54105	1541
276.55072	1457
276.56036	1544
276.57004	1477
276.57971	1589
276.58936	1500
276.59903	1534
276.60867	1534
276.61835	1980
276.62802	1799
276.63766	1822
276.64734	1459
276.65698	1458
276.66666	1537
276.67633	1934
276.68597	1557
276.69565	1541
276.70529	1620
276.71497	1479
276.72461	1544
276.73428	1528
276.74393	1596
276.7536	1812
276.76324	1506
276.77292	1525
276.78256	1514
276.79224	1536
276.80188	1529
276.81155	1484
276.8212	1577
276.83087	1585
276.84052	1442
276.85019	1533
276.85983	1487
276.86951	1683
276.87915	1492
276.88882	1457
276.89847	1553
276.90814	1579
276.91779	1449
276.92746	1753
276.9371	1580
276.94675	1560
276.95642	1626
276.96606	1479
276.97574	1665
276.98538	1443
276.99506	1548
277.0047	1467
277.01434	1688
277.02402	1459
277.03366	1472
277.0433	1460
277.05298	1526
277.06262	1552
277.0723	1511
277.08194	1551
277.09158	1503
277.10126	1525
277.1109	1952
277.12054	1562
277.13022	1655
277.13986	1491
277.14951	1550
277.15918	1547
277.16882	1892
277.17847	1578
277.18811	1829
277.19778	1571
277.20743	1908
277.21707	1509
277.22675	1622
277.23639	1426
277.24603	1471
277.25568	1528
277.26535	1499
277.27499	1484
277.28464	1606
277.29428	1546
277.30396	2111
277.3136	1620
277.32324	1679
277.33289	1512
277.34256	1608
277.3522	1578
277.36185	1577
277.37149	1506
277.38113	1825
277.39081	1526
277.40045	1655
277.4101	1534
277.41974	1511
277.42938	1610
277.43903	1611
277.4487	1421
277.45834	1912
277.46799	1604
277.47763	1584
277.48727	1520
277.49692	1818
277.50656	1723
277.51624	1542
277.52588	1602
277.53552	1579
277.54517	1758
277.55481	1558
277.56445	1585
277.5741	1548
277.58374	1489
277.59338	1578
277.60303	1567
277.61267	1513
277.62234	1563
277.63199	1571
277.64163	1567
277.65128	1549
277.66092	1585
277.67056	1522
277.68021	1537
277.68985	1551
277.69949	1469
277.70914	1594
277.71878	1838
277.72842	1480
277.73807	1717
277.74771	1623
277.75735	1536
277.767	1486
277.77664	1702
277.78629	1603
277.79593	1765
277.80557	1483
277.81522	1517
277.82486	1828
277.8345	1743
277.84415	1590
277.85379	1512
277.8634	1553
277.87305	1574
277.88269	1733
277.89233	1593
277.90198	1593
277.91162	1526
277.92126	1788
277.93091	1517
277.94055	1648
277.9502	1607
277.95984	1742
277.96945	1559
277.9791	1597
277.98874	1706
277.99838	1847
278.00803	1516
278.01767	1548
278.02731	1565
278.03693	1569
278.04657	1791
278.05621	1564
278.06586	1581
278.0755	1534
278.08514	2135
278.09476	1489
278.1044	1488
278.11404	1599
278.12369	1515
278.13333	1537
278.14294	1564
278.15259	1688
278.16223	1771
278.17188	1501
278.18149	1579
278.19113	1593
278.20078	1534
278.21042	1650
278.22003	1570
278.22968	1637
278.23932	1563
278.24896	1575
278.25858	1562
278.26822	1573
278.27786	1595
278.28748	1755
278.29712	1607
278.30676	1482
278.31638	1509
278.32602	1919
278.33566	1573
278.34531	1658
278.35492	1606
278.36456	1923
278.37418	1784
278.38382	1813
278.39346	1819
278.40308	1538
278.41272	1520
278.42236	1567
278.43198	1588
278.44162	1672
278.45126	1637
278.46088	1536
278.47052	1576
278.48013	1613
278.48978	1526
278.49942	1641
278.50903	1628
278.51868	1551
278.52829	1549
278.53793	1581
278.54755	1467
278.55719	1680
278.56683	1568
278.57645	1537
278.58609	1568
278.5957	1605
278.60535	1505
278.61496	1710
278.6246	1533
278.63422	1578
278.64386	1704
278.65347	1532
278.66312	1563
278.67273	1656
278.68237	1661
278.69199	1516
278.70163	1664
278.71124	1548
278.72089	1643
278.7305	1630
278.74014	1655
278.74976	1689
278.75937	1855
278.76901	1881
278.77863	1533
278.78827	1558
278.79788	1620
278.80753	1572
278.81714	1714
278.82675	1649
278.8364	1590
278.84601	1537
278.85565	1597
278.86526	1984
278.87488	1688
278.88452	1710
278.89413	1528
278.90375	1630
278.91339	1601
278.923	1565
278.93265	1578
278.94226	1687
278.95187	1739
278.96152	1531
278.97113	1565
278.98074	1616
278.99039	1590
279	1647
279.00961	1606
279.01923	1565
279.02887	2094
279.03848	1663
279.0481	1739
279.05774	1632
279.06735	1805
279.07697	1708
279.08658	1704
279.09622	1613
279.10583	1647
279.11545	1988
279.12506	1633
279.1347	1892
279.14432	1632
279.15393	1663
279.16354	1522
279.17319	1587
279.1828	1591
279.19241	1581
279.20203	1728
279.21164	1617
279.22128	1601
279.2309	1522
279.24051	1579
279.25012	1576
279.25974	1565
279.26935	1688
279.27899	1636
279.2886	1949
279.29822	1596
279.30783	1605
279.31744	1711
279.32706	1561
279.33667	2072
279.34631	1650
279.35593	1630
279.36554	1605
279.37515	1593
279.38477	1956
279.39438	1686
279.40399	1613
279.4136	1673
279.42322	1637
279.43283	1561
279.44247	1876
279.45209	1900
279.4617	1646
279.47131	1805
279.48093	1641
279.49054	1654
279.50015	1629
279.50977	1619
279.51938	1575
279.52899	1563
279.5386	1638
279.54822	1719
279.55783	1695
279.56744	1686
279.57706	1582
279.58667	1825
279.59628	1619
279.6059	1663
279.61551	1658
279.62512	1666
279.63474	1633
279.64435	1614
279.65396	1638
279.66357	1685
279.67319	1673
279.68277	1666
279.69238	1656
279.702	1593
279.71161	1581
279.72122	1786
279.73083	1579
279.74045	1726
279.75006	1619
279.75967	1696
279.76929	1639
279.7789	1867
279.78848	1618
279.7981	1851
279.80771	1989
279.81732	1753
279.82693	2166
279.83655	1704
279.84616	1640
279.85574	1636
279.86536	1675
279.87497	1722
279.88458	1644
279.8942	1694
279.90381	1641
279.91339	1637
279.923	1719
279.93262	1956
279.94223	1634
279.95181	2136
279.96143	1564
279.97104	1866
279.98065	1598
279.99026	1715
279.99985	1733
280.00946	1892
280.01907	1611
280.02869	1771
280.03827	1680
280.04788	1722
280.0575	1701
280.06708	2169
280.07669	1655
280.0863	1976
280.09592	1603
280.1055	1684
280.11511	1804
280.12473	1656
280.13431	1650
280.14392	1669
280.15353	1612
280.16312	1674
280.17273	1686
280.18234	1733
280.19193	1753
280.20154	1688
280.21115	1658
280.22073	1659
280.23035	1591
280.23996	1870
280.24954	1709
280.25916	1614
280.26874	1603
280.27835	1563
280.28796	1667
280.29755	1575
280.30716	1926
280.31674	1533
280.32635	1550
280.33594	1638
280.34555	1600
280.35516	1592
280.36475	1701
280.37436	1507
280.38394	1604
280.39355	1544
280.40314	1603
280.41275	1614
280.42233	1566
280.43195	1498
280.44153	1581
280.45114	1516
280.46072	1489
280.47034	1565
280.47992	1581
280.48953	1581
280.49911	1530
280.50873	1537
280.51831	1514
280.52792	1511
280.53751	1542
280.54712	1506
280.5567	1866
280.56628	1513
280.5759	1518
280.58548	1461
280.59509	1718
280.60468	1509
280.61429	1452
280.62387	1482
280.63345	1518
280.64307	1556
280.65265	1585
280.66226	1462
280.67184	1601
280.68143	1476
280.69104	1488
280.70062	1434
280.71021	1487
280.71982	1497
280.7294	1516
280.73898	1448
280.7486	1508
280.75818	1601
280.76776	2134
280.77737	1517
280.78696	1441
280.79654	1514
280.80615	1461
280.81573	1478
280.82532	1455
280.83493	1484
280.84451	1472
280.8541	1800
280.86368	1477
280.87329	1427
280.88287	1493
280.89246	1491
280.90204	1581
280.91165	1462
280.92123	1522
280.93082	1487
280.9404	1553
280.95001	1470
280.95959	1456
280.96918	1450
280.97876	1521
280.98834	1430
280.99796	1438
281.00754	1597
281.01712	1462
281.0267	1421
281.03629	1459
281.0459	1482
281.05548	1456
281.06506	1503
281.07465	1500
281.08423	1458
281.09381	1420
281.10339	1380
281.11301	1500
281.12259	1353
281.13217	1820
281.14175	1525
281.15134	1398
281.16092	1459
281.1705	1713
281.18008	1356
281.18967	1458
281.19925	1427
281.20886	1551
281.21844	1481
281.22803	1362
281.23761	1760
281.24719	1403
281.25677	1420
281.26636	1544
281.27594	1383
281.28552	1593
281.2951	1500
281.30469	1615
281.31427	1399
281.32385	1395
281.33344	1650
281.34302	1435
281.3526	1483
281.36218	1406
281.37177	1457
281.38135	1445
281.39093	1386
281.40051	1440
281.4101	1398
281.41968	1408
281.42926	1465
281.43884	1385
281.44843	1384
281.45801	1458
281.46756	1431
281.47714	1880
281.48672	1537
281.49631	1504
281.50589	1399
281.51547	1376
281.52505	1417
281.53464	1528
281.54422	1357
281.5538	1356
281.56335	1412
281.57294	1373
281.58252	1384
281.5921	1451
281.60168	1397
281.61127	1463
281.62085	1385
281.6304	1403
281.63998	1330
281.64957	1475
281.65915	1676
281.66873	1686
281.67828	1321
281.68787	1394
281.69745	1490
281.70703	1411
281.71661	1360
281.72617	1507
281.73575	1399
281.74533	1443
281.75491	1409
281.76447	1361
281.77405	1446
281.78363	1562
281.79321	1471
281.80276	1323
281.81235	1352
281.82193	1330
281.83151	1448
281.84106	1355
281.85065	1343
281.86023	1391
281.86978	1396
281.87936	1366
281.88895	1430
281.8985	1535
281.90808	1359
281.91766	1357
281.92722	1438
281.9368	1344
281.94638	1327
281.95593	1395
281.96552	1398
281.9751	1352
281.98465	1407
281.99423	1417
282.00381	1373
282.01337	1437
282.02295	1385
282.0325	1381
282.04208	1399
282.05167	1400
282.06122	1316
282.0708	1738
282.08035	1857
282.08994	1343
282.09949	1351
282.10907	1360
282.11865	1358
282.1282	1351
282.13779	1396
282.14734	1638
282.15692	1360
282.16647	1354
282.17606	1873
282.18561	1343
282.19519	1346
282.20474	1578
282.21432	1271
282.22388	1363
282.23346	1459
282.24301	1300
282.25259	1379
282.26215	1458
282.27173	1518
282.28128	1373
282.29086	1324
282.30042	1393
282.30997	1335
282.31955	1390
282.3291	1350
282.33868	1370
282.34824	1693
282.35782	1419
282.36737	1329
282.37692	1347
282.38651	1397
282.39606	1502
282.40564	1311
282.41519	1363
282.42474	1376
282.43433	1344
282.44388	1396
282.45343	1703
282.46301	1355
282.47256	1677
282.48212	1355
282.4917	1428
282.50125	1331
282.5108	1331
282.52039	1395
282.52994	1478
282.53949	1387
282.54907	1594
282.55862	1262
282.56818	1372
282.57776	1279
282.58731	1376
282.59686	1313
282.60641	1341
282.616	1413
282.62555	1321
282.6351	2522
282.64465	1286
282.65424	1336
282.66379	1319
282.67334	1639
282.68289	1568
282.69247	1459
282.70203	1380
282.71158	1426
282.72113	1489
282.73068	1400
282.74026	1400
282.74982	1365
282.75937	1315
282.76892	1299
282.77847	1334
282.78802	1315
282.79761	1411
282.80716	1350
282.81671	1410
282.82626	1614
282.83582	1477
282.84537	1335
282.85492	1310
282.86447	1325
282.87405	1397
282.88361	1354
282.89316	1353
282.90271	1345
282.91226	1403
282.92181	1469
282.93137	1346
282.94092	1367
282.95047	1373
282.96002	1376
282.96957	1320
282.97913	1534
282.98871	1374
282.99826	1345
283.00781	1433
283.01736	1424
283.02692	1382
283.03647	1399
283.04602	1434
283.05557	1456
283.06512	1527
283.07468	1338
283.08423	1460
283.09378	1332
283.10333	1424
283.11288	1646
283.12244	1389
283.13199	1629
283.14151	1412
283.15106	1398
283.16061	1287
283.17017	1383
283.17972	1380
283.18927	1391
283.19882	1865
283.20837	1429
283.21793	1281
283.22748	1528
283.23703	1599
283.24658	1506
283.25613	1404
283.26566	2367
283.27521	1796
283.28476	1257
283.29431	1628
283.30386	1319
283.31342	1351
283.32297	1405
283.33249	1319
283.34204	1330
283.35159	1318
283.36115	1420
283.3707	1358
283.38025	1338
283.38977	1494
283.39932	1339
283.40887	1544
283.41843	1834
283.42798	1629
283.4375	1316
283.44705	1366
283.4566	1369
283.46616	1361
283.47568	1339
283.48523	1377
283.49478	1386
283.50433	1325
283.51385	1358
283.52341	1354
283.53296	1400
283.54251	1299
283.55203	1506
283.56158	1368
283.57114	1352
283.58066	1675
283.59021	1296
283.59976	1730
283.60928	1354
283.61884	1411
283.62839	1440
283.63791	1339
283.64746	1318
283.65701	1442
283.66653	1363
283.67609	1462
283.68564	1343
283.69516	1965
283.70471	1392
283.71426	1364
283.72379	1667
283.73334	1353
283.74286	1354
283.75241	1347
283.76196	1350
283.77148	1380
283.78104	1347
283.79056	1392
283.80011	1427
283.80963	1663
283.81918	1470
283.82874	1487
283.83826	1386
283.84781	1470
283.85733	1331
283.86688	1425
283.8764	1466
283.88596	1343
283.89548	1483
283.90503	1647
283.91455	1332
283.9241	2184
283.93362	1326
283.94318	1410
283.9527	1388
283.96225	1379
283.97177	1387
283.98132	1600
283.99084	1576
284.00037	1502
284.00992	1355
284.01944	1379
284.02899	1425
284.03851	1393
284.04807	1736
284.05759	1325
284.06711	1364
284.07666	1408
284.08618	1499
284.09573	1389
284.10526	1377
284.11478	1384
284.12433	1397
284.13385	1370
284.14337	1453
284.15292	1550
284.16245	1470
284.172	1458
284.18152	1413
284.19104	1465
284.20059	1676
284.21011	2014
284.21964	1463
284.22916	1471
284.23871	1460
284.24823	1458
284.25775	1386
284.2673	1536
284.27682	1526
284.28635	1357
284.2959	1551
284.30542	1394
284.31494	1451
284.32446	1385
284.33401	1408
284.34354	1428
284.35306	1387
284.36258	1340
284.3721	1487
284.38165	1373
284.39117	1468
284.4007	1334
284.41022	1556
284.41977	1462
284.42929	1406
284.43881	1388
284.44833	1537
284.45786	1714
284.46738	1808
284.47693	1408
284.48645	1407
284.49597	1385
284.50549	1514
284.51501	1385
284.52454	1431
284.53406	1404
284.54361	1341
284.55313	1491
284.56265	1562
284.57217	1389
284.5817	1480
284.59122	1764
284.60074	1805
284.61026	1529
284.61978	1454
284.6293	1432
284.63885	1380
284.64838	1569
284.6579	1562
284.66742	1360
284.67694	1387
284.68646	1380
284.69598	1519
284.70551	1409
284.71503	1425
284.72455	1362
284.73407	1404
284.74359	1411
284.75311	1410
284.76263	1517
284.77216	1467
284.78168	1539
284.7912	1479
284.80072	1376
284.81024	1825
284.81976	1386
284.82928	1368
284.83881	1365
284.84833	1455
284.85782	1433
284.86734	1466
284.87686	1450
284.88638	1781
284.8959	1371
284.90543	1384
284.91495	1523
284.92447	1376
284.93399	1603
284.94351	1531
284.953	1524
284.96252	1377
284.97205	1539
284.98157	1507
284.99109	1426
285.00061	1448
285.01013	1413
285.01962	1486
285.02914	1391
285.03867	1467
285.04819	1372
285.05771	1394
285.06723	1371
285.07672	1527
285.08624	1434
285.09576	1404
285.10529	1483
285.11481	1466
285.1243	1792
285.13382	1803
285.14334	1564
285.15286	1461
285.16235	1438
285.17188	1494
285.1814	1408
285.19092	1412
285.20041	1363
285.20993	1470
285.21945	1655
285.22894	1388
285.23846	1455
285.24799	1483
285.25751	1489
285.267	1406
285.27652	1453
285.28604	1444
285.29553	1385
285.30505	1389
285.31458	1732
285.32407	1441
285.33359	1640
285.34311	1473
285.3526	1428
285.36212	1615
285.37161	1515
285.38113	1634
285.39066	1471
285.40015	1479
285.40967	1542
285.41916	1450
285.42868	1431
285.4382	1872
285.44769	1418
285.45721	1407
285.46671	1432
285.47623	1525
285.48572	1440
285.49524	1542
285.50476	1468
285.51425	1504
285.52377	1496
285.53326	1530
285.54279	1478
285.55228	1505
285.5618	1431
285.57129	1874
285.58081	1477
285.5903	1552
285.59982	1396
285.60931	1401
285.61884	1495
285.62833	1379
285.63785	2246
285.64734	1525
285.65683	1528
285.66635	1528
285.67584	1502
285.68536	1589
285.69485	1452
285.70438	1455
285.71387	1414
285.72336	1510
285.73288	1469
285.74237	1547
285.75189	1450
285.76138	1421
285.77087	1449
285.7804	1520
285.78989	1425
285.79941	1832
285.8089	1470
285.81839	1591
285.82791	1480
285.8374	1558
285.84689	1437
285.85641	1404
285.86591	1460
285.8754	1509
285.88492	1526
285.89441	1492
285.9039	1575
285.91339	1488
285.92291	1544
285.9324	1507
285.94189	1498
285.95142	1561
285.96091	1498
285.9704	1555
285.97989	1602
285.98941	1520
285.9989	1946
286.00839	1446
286.01788	1504
286.0274	1471
286.0369	1461
286.04639	2056
286.05588	1521
286.06537	1729
286.07489	1508
286.08438	1424
286.09387	1404
286.10336	1564
286.11285	1593
286.12234	1487
286.13187	1438
286.14136	1555
286.15085	1461
286.16034	1714
286.16983	1430
286.17932	1517
286.18881	1506
286.19833	1478
286.20782	1511
286.21732	1486
286.22681	1524
286.2363	1588
286.24579	1487
286.25528	1782
286.26477	1926
286.27426	1429
286.28375	1586
286.29324	1531
286.30273	1584
286.31226	1711
286.32175	1522
286.33124	1542
286.34073	1488
286.35022	1408
286.35971	1531
286.3692	1492
286.37869	1568
286.38818	1482
286.39767	1504
286.40717	1529
286.41666	1569
286.42615	1525
286.43564	1563
286.44513	1595
286.45462	1522
286.46411	1532
286.47357	1502
286.48306	1493
286.49255	1658
286.50204	1465
286.51154	1538
286.52103	1504
286.53052	1490
286.54001	1925
286.5495	1491
286.55899	1459
286.56848	1620
286.57797	1494
286.58743	1586
286.59692	2078
286.60641	1494
286.61591	1460
286.6254	1531
286.63489	1467
286.64438	1510
286.65384	1560
286.66333	1564
286.67282	1541
286.68231	1460
286.6918	1636
286.70129	1521
286.71075	1412
286.72025	1489
286.72974	1492
286.73923	1539
286.74869	1837
286.75818	1439
286.76767	1537
286.77716	1520
286.78665	1581
286.79611	1530
286.8056	1678
286.81509	1489
286.82458	1793
286.83405	1524
286.84354	1541
286.85303	1572
286.86249	1714
286.87198	1600
286.88147	1447
286.89093	1499
286.90042	1431
286.90991	1498
286.9194	1452
286.92886	1464
286.93835	1699
286.94785	1507
286.95731	1517
286.9668	1544
286.97626	1722
286.98575	1438
286.99524	1517
287.0047	1599
287.01419	1550
287.02368	1350
287.03314	1440
287.04263	1477
287.05209	1544
287.06158	1822
287.07108	1816
287.08054	1636
287.09003	1528
287.09949	1473
287.10898	1697
287.11844	1426
287.12793	1442
287.13739	1624
287.14688	1420
287.15634	1461
287.16583	1463
287.17529	2437
287.18478	1508
287.19427	1463
287.20374	1479
287.2132	1477
287.22269	1454
287.23215	1445
287.24164	1461
287.2511	1484
287.26059	1488
287.27005	2036
287.27954	1351
287.289	1428
287.29849	1471
287.30795	1424
287.31744	1483
287.3269	1491
287.33636	1465
287.34586	1532
287.35532	1431
287.36481	1479
287.37427	1468
287.38373	1418
287.39322	1799
287.40268	1407
287.41214	1465
287.42163	1480
287.43109	1482
287.44058	1399
287.45004	1425
287.4595	1466
287.46899	1466
287.47845	1436
287.48792	1480
287.49738	1600
287.50687	1824
287.51633	1349
287.52579	1487
287.53528	1415
287.54474	1525
287.5542	1454
287.56369	1481
287.57315	1770
287.58261	1337
287.59207	1391
287.60156	1396
287.61102	1409
287.62048	1407
287.62994	1411
287.6394	1739
287.6489	1439
287.65836	1499
287.66782	1446
287.67728	1448
287.68677	1526
287.69623	1365
287.70569	1352
287.71515	1412
287.72461	1511
287.73407	1465
287.74356	1416
287.75302	1406
287.76248	1865
287.77194	1446
287.7814	2184
287.79086	1762
287.80032	1421
287.80981	1395
287.81927	1482
287.82874	1430
287.8382	1457
287.84766	1532
287.85712	1441
287.86658	1502
287.87604	1413
287.8855	1476
287.89496	1418
287.90442	1443
287.91388	1372
287.92334	1429
287.93283	1437
287.94229	1433
287.95175	1367
287.96121	1452
287.97067	1418
287.98013	1738
287.98959	1349
287.99905	1631
288.00851	1372
288.01797	1410
288.02744	1635
288.0369	1575
288.04636	1412
288.05579	1529
288.06525	1944
288.07471	1375
288.08417	1857
288.09363	1349
288.10309	1485
288.11255	1411
288.12201	1439
288.13147	1698
288.14093	1771
288.15039	1424
288.15985	1411
288.16931	1405
288.17874	1386
288.1882	1359
288.19766	1403
288.20712	1436
288.21658	1418
288.22604	1430
288.2355	1408
288.24496	1484
288.25439	1502
288.26385	1503
288.27332	1430
288.28278	1677
288.29224	1416
288.30167	1537
288.31113	1360
288.32059	1402
288.33005	1429
288.33951	1478
288.34894	1456
288.3584	1444
288.36786	1450
288.37732	1782
288.38675	1407
288.39621	1466
288.40567	1410
288.41513	1414
288.42456	1613
288.43402	1372
288.44348	1438
288.45294	1416
288.46237	1523
288.47183	1385
288.48129	1798
288.49072	1443
288.50018	1529
288.50964	1544
288.51907	1418
288.52853	1460
288.53799	1810
288.54742	1703
288.55688	1411
288.56635	1517
288.57578	1444
288.58524	1470
288.59467	1409
288.60413	1400
288.61359	1470
288.62302	1503
288.63248	1649
288.64194	1559
288.65137	1333
288.66083	1542
288.67026	1480
288.67972	1595
288.68915	1605
288.69861	1495
288.70804	1501
288.7175	1536
288.72696	1490
288.73639	1541
288.74585	1457
288.75528	1595
288.76474	1550
