Date and Time:                Mon Oct 10 12:44:37.000 2022
Software Version:             4.31.30023.0
Temperature (C):              -40
Model:                        DU940P_BU2
Data Type:                    Counts
Acquisition Mode:             Single Scan
Trigger Mode:                 Internal
Exposure Time (secs):         55
Readout Mode:                 Full Vertical Binning
Horizontal binning:           1
Extended Dynamic Range:       off
Horizontally flipped:         false
Vertical Shift Speed (usecs): 14.51
Pixel Readout Rate (MHz):     3
Baseline Clamp:               ON
Clock Amplitude:              Normal
Output Amplifier:             High Capacity
Serial Number:                23634
Pre-Amplifier Gain:           1.000000
Spurious Noise Filter Mode:   No Filter
Photon counted:               false
Data Averaging Filter Mode:   No Filter
SR500i:
Serial Number:                
Wavelength (nm):              214
Grating Groove Density (l/mm):1199.47
Grating Blaze:                500
Output Flipper Port:          Direct
Accessory Output Port 1:      Off
Accessory Output Port 2:      Off
Accessory Output Port 3:      Off
Accessory Input Port:         On



192.0349	528
192.05646	510
192.078	503
192.09956	493
192.12112	493
192.14268	497
192.16425	487
192.18581	477
192.20735	453
192.22891	457
192.25047	460
192.27203	473
192.29358	463
192.31514	473
192.3367	471
192.35826	462
192.37981	468
192.40137	479
192.42293	497
192.44449	472
192.46603	454
192.48759	477
192.50916	497
192.5307	483
192.55226	478
192.57381	471
192.59537	466
192.61693	486
192.63847	491
192.66003	496
192.68159	492
192.70314	477
192.7247	462
192.74625	484
192.76781	501
192.78935	513
192.81091	500
192.83246	500
192.85402	488
192.87556	485
192.89713	480
192.91867	513
192.94023	506
192.96178	510
192.98334	521
193.00488	521
193.02643	505
193.04799	482
193.06953	499
193.09109	499
193.11264	512
193.13419	509
193.15575	515
193.17729	518
193.19884	516
193.2204	518
193.24194	497
193.26349	519
193.28505	508
193.30659	512
193.32814	526
193.34969	518
193.37125	531
193.39279	513
193.41434	524
193.43588	512
193.45744	510
193.47899	516
193.50053	531
193.52208	520
193.54362	524
193.56517	529
193.58673	540
193.60828	525
193.62982	529
193.65137	526
193.67291	529
193.69446	501
193.716	513
193.73755	510
193.75909	517
193.78064	528
193.80219	515
193.82375	515
193.84529	524
193.86684	520
193.88838	512
193.90993	534
193.93147	526
193.953	520
193.97455	525
193.99609	506
194.01764	536
194.03918	530
194.06073	539
194.08228	558
194.10382	528
194.12537	534
194.14691	533
194.16846	534
194.18999	528
194.21153	516
194.23308	532
194.25462	524
194.27617	525
194.29771	520
194.31924	529
194.34079	534
194.36234	535
194.38388	549
194.40541	521
194.42696	534
194.4485	537
194.47005	515
194.49158	524
194.51312	500
194.53467	493
194.5562	504
194.57774	494
194.59929	495
194.62082	492
194.64236	519
194.66391	511
194.68544	493
194.70699	506
194.72852	542
194.75006	530
194.77161	498
194.79314	484
194.81468	524
194.83621	542
194.85776	537
194.87929	512
194.90083	506
194.92236	519
194.94391	536
194.96544	537
194.98698	530
195.00851	519
195.03006	511
195.05159	516
195.07312	529
195.09467	541
195.1162	544
195.13774	540
195.15927	558
195.1808	532
195.20235	514
195.22388	537
195.24541	559
195.26695	556
195.28848	555
195.31001	557
195.33156	543
195.35309	542
195.37462	536
195.39616	539
195.41769	558
195.43922	566
195.46075	564
195.48228	579
195.50383	564
195.52536	553
195.54689	561
195.56842	541
195.58995	551
195.6115	566
195.63303	565
195.65456	565
195.67609	582
195.69762	577
195.71915	571
195.74068	569
195.76221	561
195.78374	572
195.80528	563
195.82681	561
195.84834	568
195.86987	571
195.8914	592
195.91293	567
195.93446	569
195.95599	581
195.97752	584
195.99905	592
196.02058	582
196.0421	580
196.06363	577
196.08516	583
196.10669	594
196.12822	590
196.14975	593
196.17128	600
196.19281	592
196.21434	594
196.23586	595
196.25739	591
196.27892	593
196.30045	600
196.32198	598
196.34351	604
196.36502	601
196.38655	603
196.40808	604
196.42961	617
196.45113	608
196.47266	616
196.49419	604
196.5157	611
196.53723	625
196.55876	627
196.58029	609
196.60181	619
196.62334	613
196.64485	625
196.66638	638
196.68791	620
196.70943	625
196.73096	616
196.75249	623
196.774	618
196.79553	646
196.81705	646
196.83858	641
196.86009	636
196.88162	643
196.90314	640
196.92467	635
196.94618	636
196.96771	617
196.98923	626
197.01076	625
197.03227	622
197.0538	649
197.07532	620
197.09683	635
197.11836	647
197.13988	624
197.16141	625
197.18292	649
197.20444	656
197.22597	640
197.24748	660
197.269	638
197.29053	664
197.31204	674
197.33356	668
197.35509	645
197.3766	643
197.39812	674
197.41963	668
197.44116	686
197.46268	667
197.48419	672
197.50571	667
197.52722	674
197.54875	677
197.57027	695
197.59178	691
197.6133	672
197.63481	680
197.65633	680
197.67784	680
197.69937	689
197.72089	735
197.7424	695
197.76392	706
197.78543	712
197.80695	701
197.82846	705
197.84998	707
197.87149	703
197.89301	710
197.91452	708
197.93604	710
197.95755	709
197.97906	716
198.00058	726
198.02209	707
198.04361	728
198.06512	717
198.08664	714
198.10814	718
198.12965	719
198.15117	728
198.17268	718
198.1942	738
198.21571	739
198.23723	717
198.25873	735
198.28024	739
198.30176	746
198.32327	759
198.34479	744
198.36629	744
198.3878	742
198.40932	746
198.43083	744
198.45233	758
198.47385	760
198.49536	779
198.51686	760
198.53838	766
198.55989	773
198.58139	779
198.60291	783
198.62442	779
198.64592	797
198.66743	792
198.68895	799
198.71045	784
198.73196	799
198.75346	796
198.77498	792
198.79648	803
198.81799	807
198.83949	804
198.86101	800
198.88251	821
198.90402	809
198.92552	821
198.94704	817
198.96854	814
198.99005	813
199.01155	820
199.03307	820
199.05457	833
199.07607	831
199.09758	851
199.11908	839
199.14059	831
199.16209	852
199.18359	879
199.20511	851
199.22661	855
199.24811	866
199.26961	895
199.29112	875
199.31262	897
199.33412	876
199.35564	876
199.37714	886
199.39864	870
199.42014	914
199.44164	907
199.46315	899
199.48465	901
199.50615	899
199.52765	908
199.54915	910
199.57065	907
199.59216	917
199.61366	911
199.63516	907
199.65666	911
199.67816	929
199.69966	917
199.72116	924
199.74266	944
199.76416	941
199.78566	936
199.80716	956
199.82866	964
199.85016	956
199.87166	964
199.89316	977
199.91466	988
199.93616	989
199.95766	993
199.97916	995
200.00066	995
200.02216	1007
200.04366	1009
200.06516	1025
200.08664	1028
200.10814	1024
200.12964	1012
200.15114	1020
200.17264	1053
200.19414	1054
200.21562	1044
200.23712	1054
200.25862	1046
200.28012	1052
200.30161	1035
200.3231	1044
200.3446	1073
200.3661	1084
200.38759	1074
200.40909	1081
200.43059	1099
200.45207	1090
200.47357	1085
200.49507	1093
200.51656	1105
200.53806	1105
200.55956	1117
200.58104	1122
200.60254	1135
200.62402	1131
200.64552	1129
200.66702	1142
200.68851	1139
200.71001	1207
200.73149	1153
200.75299	1171
200.77448	1174
200.79597	1176
200.81746	1173
200.83896	1191
200.86044	1184
200.88194	1196
200.90343	1197
200.92491	1222
200.94641	1251
200.9679	1232
200.9894	1225
201.01088	1222
201.03236	1233
201.05386	1253
201.07535	1249
201.09683	1257
201.11833	1283
201.13982	1296
201.1613	1265
201.1828	1284
201.20428	1299
201.22577	1308
201.24725	1311
201.26875	1331
201.29024	1323
201.31172	1354
201.33321	1328
201.35469	1334
201.37619	1371
201.39767	1383
201.41916	1360
201.44064	1401
201.46213	1400
201.48361	1408
201.50511	1411
201.5266	1397
201.54808	1423
201.56956	1428
201.59105	1437
201.61253	1450
201.63402	1464
201.6555	1497
201.67699	1484
201.69847	1479
201.71996	1503
201.74144	1522
201.76292	1548
201.78441	1532
201.80589	1539
201.82738	1532
201.84886	1564
201.87035	1558
201.89183	1591
201.9133	1572
201.93478	1600
201.95627	1589
201.97775	1605
201.99924	1617
202.02072	1618
202.04221	1654
202.06367	1648
202.08516	1636
202.10664	1659
202.12813	1679
202.14961	1688
202.17108	1702
202.19257	1706
202.21405	1717
202.23553	1723
202.257	1734
202.27849	1740
202.29997	1739
202.32144	1753
202.34293	1757
202.36441	1753
202.38588	1760
202.40736	1797
202.42883	1805
202.45032	1824
202.4718	1828
202.49327	1828
202.51476	2044
202.53622	1849
202.55771	1873
202.57918	1899
202.60066	1921
202.62213	1900
202.64362	1926
202.66508	1979
202.68657	1982
202.70804	1972
202.72952	1998
202.75099	1996
202.77248	2024
202.79395	2024
202.81543	2035
202.8369	2039
202.85837	2063
202.87985	2087
202.90132	2119
202.92279	2115
202.94427	2176
202.96574	2145
202.98721	2174
203.0087	2160
203.03017	2173
203.05164	2205
203.0731	2256
203.09459	2300
203.11606	2284
203.13753	2311
203.159	2323
203.18048	2316
203.20195	2351
203.22342	2345
203.24489	2363
203.26636	2372
203.28783	2403
203.30931	2401
203.33078	2427
203.35225	2417
203.37372	2453
203.39519	2457
203.41666	2465
203.43813	2457
203.45959	2480
203.48106	2482
203.50253	2534
203.524	2549
203.54547	2552
203.56694	2598
203.58841	2602
203.60988	2689
203.63135	2656
203.65282	2660
203.67429	2692
203.69576	2710
203.71722	2717
203.73869	2728
203.76016	2745
203.78163	2760
203.80309	2752
203.82455	2791
203.84602	2810
203.86749	2844
203.88896	2867
203.91043	2882
203.93188	2872
203.95335	2912
203.97482	2897
203.99629	2931
204.01775	2962
204.03922	3008
204.06068	3015
204.08215	3051
204.10361	3077
204.12508	3102
204.14655	3085
204.168	3128
204.18947	3146
204.21094	3147
204.23239	3156
204.25386	3200
204.27531	3189
204.29678	3226
204.31825	3243
204.33971	3245
204.36118	3293
204.38263	3364
204.4041	3393
204.42555	3410
204.44702	3412
204.46848	3452
204.48994	3487
204.5114	3509
204.53287	3543
204.55432	3600
204.57579	3618
204.59724	3639
204.6187	3666
204.64017	3702
204.66162	3755
204.68309	3758
204.70454	3793
204.726	3807
204.74747	3840
204.76892	3821
204.79037	3924
204.81184	3927
204.8333	3985
204.85475	3939
204.87621	3982
204.89767	4005
204.91913	4079
204.94058	4117
204.96204	4134
204.98351	4173
205.00496	4205
205.02641	4275
205.04787	4286
205.06932	4351
205.09077	4371
205.11224	4396
205.1337	4394
205.15515	4466
205.17661	4482
205.19806	4503
205.21951	4566
205.24097	4603
205.26242	4671
205.28387	4672
205.30533	4714
205.32678	4746
205.34824	4775
205.36969	4806
205.39114	4799
205.4126	4820
205.43405	4850
205.45551	4911
205.47696	4956
205.49841	4972
205.51987	5029
205.54132	5044
205.56277	5089
205.58421	5143
205.60567	5228
205.62712	5253
205.64857	5301
205.67003	5339
205.69148	5381
205.71292	5418
205.73438	5475
205.75583	5540
205.77728	5573
205.79872	5613
205.82018	5700
205.84163	5763
205.86308	5853
205.88452	5870
205.90598	5940
205.92743	5978
205.94887	6012
205.97032	6091
205.99178	6139
206.01321	6134
206.03467	6223
206.05611	6250
206.07756	6322
206.09901	6341
206.12045	6362
206.14191	6395
206.16335	6471
206.1848	6512
206.20624	6523
206.22769	6579
206.24913	6671
206.27058	6710
206.29202	6774
206.31348	6836
206.33492	6879
206.35637	6919
206.37781	6955
206.39925	6980
206.4207	7039
206.44214	7125
206.46359	7183
206.48503	7212
206.50647	7268
206.52792	7397
206.54936	7428
206.5708	7525
206.59224	7559
206.61369	7625
206.63513	7642
206.65657	7698
206.67802	7705
206.69946	7760
206.7209	7783
206.74234	7824
206.76378	7951
206.78523	7983
206.80667	8021
206.82811	8024
206.84955	8088
206.87099	8109
206.89243	8181
206.91386	8290
206.93532	8416
206.95676	8513
206.9782	8535
206.99963	8614
207.02107	8653
207.04251	8742
207.06395	8795
207.08539	8848
207.10683	8968
207.12827	9004
207.1497	9037
207.17114	9071
207.19258	9153
207.21402	9298
207.23546	9307
207.2569	9413
207.27832	9455
207.29976	9644
207.3212	9679
207.34264	9654
207.36407	9756
207.38551	9860
207.40695	9913
207.42838	10020
207.44981	10136
207.47125	10266
207.49269	10352
207.51413	10422
207.53555	10469
207.55699	10510
207.57843	10580
207.59985	10636
207.62129	10744
207.64273	10944
207.66417	10913
207.68559	10940
207.70703	11015
207.72845	11123
207.74989	11245
207.77133	11227
207.79276	11261
207.81419	11374
207.83562	11438
207.85706	11469
207.87849	11530
207.89992	11635
207.92136	11734
207.94278	11824
207.96422	11961
207.98564	12079
208.00708	12142
208.0285	12233
208.04994	12363
208.07137	12303
208.09279	12352
208.11423	12402
208.13565	12475
208.15709	12621
208.17851	12588
208.19994	12721
208.22137	12918
208.2428	12932
208.26422	13017
208.28566	12986
208.30708	13199
208.32851	13208
208.34995	13340
208.37137	13483
208.39279	13781
208.41422	13940
208.43565	13970
208.45708	14029
208.4785	14166
208.49992	14183
208.52135	14235
208.54279	14260
208.56421	14426
208.58563	14514
208.60706	14662
208.62848	14652
208.6499	14727
208.67133	14744
208.69275	14849
208.71417	15018
208.7356	15308
208.75703	15343
208.77846	15510
208.79988	15514
208.8213	15619
208.84273	15656
208.86415	15750
208.88556	15920
208.90698	16198
208.92841	16429
208.94983	16613
208.97125	16611
208.99268	16712
209.0141	16835
209.03552	16950
209.05695	17035
209.07837	17109
209.09978	17190
209.1212	17212
209.14262	17255
209.16405	17405
209.18547	17508
209.20688	17593
209.2283	17630
209.24973	17692
209.27115	17822
209.29256	17910
209.31398	18080
209.3354	18200
209.35683	18345
209.37823	18480
209.39966	18744
209.42108	18933
209.44249	19014
209.46391	19112
209.48532	19261
209.50674	19296
209.52817	19343
209.54958	19369
209.571	19519
209.59241	19738
209.61383	19751
209.63524	19607
209.65666	19640
209.67807	19870
209.69949	20174
209.7209	20340
209.74232	20444
209.76373	20599
209.78516	20592
209.80656	20742
209.82797	20728
209.8494	20871
209.8708	21043
209.89223	21255
209.91364	21498
209.93504	21652
209.95647	21758
209.97787	21665
209.99928	21824
210.02071	22033
210.04211	22196
210.06352	22293
210.08493	22340
210.10635	22443
210.12776	22499
210.14917	22643
210.17058	22843
210.19199	23219
210.21341	23355
210.23482	23521
210.25623	23587
210.27763	23660
210.29904	23826
210.32045	23883
210.34186	23953
210.36327	24233
210.38469	24342
210.4061	24466
210.42751	24524
210.44891	24682
210.47032	24859
210.49173	25095
210.51314	25153
210.53455	25313
210.55595	25391
210.57736	25323
210.59877	25441
210.62018	25634
210.64157	25693
210.66298	25794
210.68439	25781
210.7058	25874
210.7272	25971
210.74861	26150
210.77002	26414
210.79143	26580
210.81282	26741
210.83423	26906
210.85564	27093
210.87704	27232
210.89844	27374
210.91985	27570
210.94125	27642
210.96266	27807
210.98405	27973
211.00546	27931
211.02687	28127
211.04826	28216
211.06967	28321
211.09108	28316
211.11247	28525
211.13388	28872
211.15529	28915
211.17668	28699
211.19809	28611
211.21948	28391
211.24089	28411
211.2623	28565
211.28369	28509
211.3051	28702
211.32649	28918
211.3479	28802
211.36929	28913
211.3907	29193
211.41209	29419
211.43349	29500
211.4549	29673
211.47629	29797
211.4977	29922
211.51909	30004
211.54048	30087
211.56189	30144
211.58328	30523
211.60469	30455
211.62608	30568
211.64748	30869
211.66887	31308
211.69028	31436
211.71167	31508
211.73306	31394
211.75447	31492
211.77586	31565
211.79726	31673
211.81865	31973
211.84004	32186
211.86145	32198
211.88284	32179
211.90424	32203
211.92563	32299
211.94702	32336
211.96841	32470
211.98981	32853
212.01122	32813
212.03261	32691
212.054	32666
212.07539	32832
212.09679	33010
212.11818	33223
212.13957	33263
212.16096	33354
212.18236	33191
212.20375	33177
212.22514	33178
212.24654	33103
212.26793	33079
212.28932	33287
212.3107	33314
212.33209	33427
212.35349	33471
212.37488	33654
212.39627	33640
212.41766	33749
212.43906	33609
212.46043	33611
212.48183	33364
212.50322	33480
212.52461	33554
212.54601	33524
212.56738	33785
212.58878	34047
212.61017	33978
212.63156	34189
212.65294	34188
212.67433	34214
212.69572	34180
212.7171	34374
212.73849	34565
212.75989	35153
212.78127	35347
212.80266	35458
212.82404	35256
212.84543	35093
212.86681	35075
212.8882	35323
212.90959	35394
212.93097	35511
212.95236	35481
212.97374	35400
212.99513	35305
213.01651	35134
213.0379	35041
213.05928	34958
213.08066	35081
213.10205	35577
213.12343	35664
213.14482	35625
213.1662	35492
213.18758	35300
213.20897	35203
213.23035	35181
213.25172	35495
213.27312	35689
213.29449	36153
213.31587	36086
213.33727	36068
213.35864	35988
213.38002	36163
213.4014	36070
213.42279	36126
213.44417	36281
213.46555	36155
213.48692	35961
213.5083	35594
213.52969	35549
213.55107	35408
213.57245	35238
213.59383	35295
213.6152	35329
213.63658	35423
213.65796	35337
213.67934	35274
213.70071	35357
213.72209	35394
213.74347	35603
213.76485	35845
213.78622	35972
213.8076	35979
213.82898	35966
213.85036	36159
213.87173	36276
213.89311	36073
213.91449	35651
213.93587	35686
213.95724	35742
213.97862	35639
214	35216
214.02138	35446
214.04274	36142
214.06412	36058
214.08549	36033
214.10687	35914
214.12825	35844
214.14961	35900
214.17099	35856
214.19237	36058
214.21375	36501
214.23511	36390
214.25648	36402
214.27786	36218
214.29922	36311
214.3206	36081
214.34198	36004
214.36334	35977
214.38472	35783
214.4061	35744
214.42746	35735
214.44884	35531
214.4702	35411
214.49158	35347
214.51294	35416
214.53432	35572
214.55568	35586
214.57706	35559
214.59842	35614
214.6198	35405
214.64116	35342
214.66254	35265
214.6839	35168
214.70528	35285
214.72664	35451
214.74802	35408
214.76938	35327
214.79074	35257
214.81212	35021
214.83348	35009
214.85484	34990
214.87622	34867
214.89758	34985
214.91895	34807
214.94031	34645
214.96169	34611
214.98305	34580
215.00441	34401
215.02577	34187
215.04715	34140
215.06851	34122
215.08987	34216
215.11124	34109
215.1326	34071
215.15396	33913
215.17534	34017
215.1967	34022
215.21806	34169
215.23943	34023
215.26079	33926
215.28215	33843
215.30351	33552
215.32487	33543
215.34624	33366
215.3676	33289
215.38896	33190
215.41032	33098
215.43169	32743
215.45305	32465
215.47441	32391
215.49577	32307
215.51714	32085
215.5385	31913
215.55986	31801
215.58121	31814
215.60257	31529
215.62393	31247
215.64529	31079
215.66666	31216
215.68802	31079
215.70937	31023
215.73073	31043
215.75209	31072
215.77345	30946
215.7948	30759
215.81616	30730
215.83752	30668
215.85889	30545
215.88023	30456
215.9016	30426
215.92296	30419
215.94431	30270
215.96567	30103
215.98701	30242
216.00838	30383
216.02974	30446
216.05109	30323
216.07245	30116
216.0938	29910
216.11516	29818
216.13651	29573
216.15787	29577
216.17921	29698
216.20058	29783
216.22192	29611
216.24329	29551
216.26463	29547
216.286	29528
216.30734	29516
216.32869	29469
216.35005	29354
216.3714	29169
216.39275	29139
216.41411	29203
216.43546	29237
216.4568	29107
216.47816	28924
216.49951	28708
216.52086	28506
216.54222	28353
216.56357	28176
216.58492	28362
216.60626	28382
216.62761	28215
216.64897	28097
216.67032	28138
216.69167	28101
216.71301	27976
216.73436	28021
216.75571	28105
216.77705	27985
216.79842	27857
216.81976	27568
216.84111	27543
216.86246	27439
216.8838	27281
216.90515	27174
216.9265	27302
216.94785	27427
216.96919	27348
216.99054	27085
217.01189	26820
217.03323	26643
217.05458	26450
217.07591	26351
217.09726	26341
217.11861	26400
217.13995	26273
217.1613	26154
217.18265	26108
217.20399	26203
217.22533	26138
217.24667	26041
217.26802	26068
217.28937	25980
217.31071	25940
217.33205	25681
217.35339	25537
217.37474	25483
217.39609	25442
217.41742	25198
217.43877	25252
217.46011	25478
217.48145	25480
217.50279	25303
217.52412	25077
217.54547	24991
217.56682	24941
217.58815	24873
217.6095	24865
217.63083	24857
217.65218	24829
217.67351	24754
217.69485	24649
217.71619	24569
217.73753	24474
217.75887	24320
217.78021	24421
217.80154	24413
217.82289	24268
217.84422	24034
217.86557	23929
217.8869	23829
217.90823	23799
217.92958	23670
217.95091	23543
217.97224	23529
217.99359	23412
218.01492	23239
218.03625	23050
218.05759	22947
218.07893	23016
218.10027	22835
218.1216	23009
218.14293	22962
218.16428	22835
218.18561	22656
218.20694	22677
218.22827	22547
218.2496	22376
218.27094	22181
218.29228	21998
218.31361	21957
218.33495	21748
218.35628	21633
218.37761	21758
218.39894	21585
218.42027	21489
218.4416	21360
218.46294	21254
218.48427	21173
218.5056	21051
218.52693	21144
218.54826	21261
218.5696	21394
218.59093	21420
218.61226	21270
218.63359	21089
218.65492	20950
218.67624	20834
218.69757	20729
218.7189	20774
218.74023	20750
218.76157	20692
218.7829	20630
218.80421	20431
218.82555	20270
218.84688	20339
218.86821	20284
218.88953	20376
218.91086	20456
218.93219	20396
218.95351	20294
218.97484	20148
218.99617	20073
219.01749	20160
219.03882	20161
219.06015	20234
219.08147	20412
219.1028	20421
219.12411	20307
219.14545	20218
219.16678	20163
219.1881	20081
219.20943	20020
219.23074	19927
219.25208	19877
219.27339	19804
219.29472	19683
219.31604	19517
219.33736	19430
219.35869	19372
219.38	19242
219.40134	19075
219.42265	19098
219.44397	19051
219.4653	18995
219.48662	18874
219.50793	18923
219.52927	18876
219.55058	18927
219.5719	19033
219.59323	18983
219.61455	18893
219.63586	18835
219.65718	18757
219.6785	18603
219.69983	18522
219.72115	18467
219.74246	18414
219.76378	18336
219.7851	18184
219.80641	18124
219.82773	18109
219.84906	18174
219.87038	18104
219.89169	18120
219.91301	18089
219.93433	17966
219.95564	17893
219.97696	17763
219.99828	17740
220.01959	17809
220.04091	17800
220.06223	17790
220.08354	17649
220.10486	17773
220.12617	17580
220.14748	17514
220.16879	17526
220.19011	17356
220.21143	17353
220.23274	17334
220.25406	17298
220.27536	17202
220.29668	17099
220.31799	17094
220.33931	17136
220.36063	17185
220.38193	17113
220.40324	17013
220.42456	17016
220.44586	16898
220.46718	16883
220.48849	16878
220.5098	16910
220.53111	16967
220.55243	16908
220.57373	16922
220.59505	16771
220.61636	16766
220.63766	16719
220.65898	16685
220.68028	16654
220.7016	16568
220.7229	16501
220.74422	16432
220.76552	16401
220.78683	16329
220.80814	16282
220.82945	16095
220.85075	16000
220.87206	15910
220.89337	15951
220.91467	15986
220.93599	15982
220.95729	15888
220.97859	15855
220.99991	15822
221.02121	15838
221.04251	15733
221.06381	15695
221.08513	15726
221.10643	15613
221.12773	15589
221.14903	15514
221.17035	15523
221.19165	15467
221.21295	15452
221.23425	15350
221.25555	15233
221.27686	15300
221.29817	15257
221.31947	15180
221.34077	15079
221.36208	15071
221.38338	15052
221.40468	14819
221.42598	14691
221.44728	14531
221.46858	14486
221.48988	14499
221.51118	14467
221.53249	14587
221.55379	14503
221.57509	14358
221.59639	14279
221.61769	14161
221.63899	14155
221.66028	14096
221.68158	14129
221.70288	14126
221.72418	14139
221.74548	13973
221.76678	14002
221.78807	14036
221.80937	14048
221.83067	13996
221.85197	13972
221.87326	13936
221.89456	13899
221.91586	13775
221.93716	13658
221.95845	13594
221.97975	13567
222.00105	13600
222.02234	13562
222.04364	13569
222.06493	13566
222.08623	13553
222.10753	13569
222.12881	13503
222.15012	13499
222.1714	13504
222.1927	13400
222.21399	13426
222.23529	13430
222.25658	13431
222.27788	13332
222.29916	13261
222.32045	13168
222.34175	13104
222.36304	13171
222.38434	13211
222.40562	13154
222.42691	13137
222.44821	13058
222.4695	12992
222.49078	12894
222.51208	12892
222.53337	12884
222.55466	12946
222.57594	12877
222.59724	12812
222.61853	12730
222.63982	12729
222.6611	12669
222.68239	12680
222.70369	12618
222.72498	12658
222.74626	12682
222.76755	12569
222.78883	12492
222.81012	12338
222.83141	12258
222.85269	12250
222.87398	12135
222.89526	12071
222.91656	12106
222.93785	12121
222.95914	12034
222.98041	12052
223.00169	12026
223.02298	12016
223.04427	11946
223.06555	11859
223.08684	11880
223.10812	11818
223.12941	11749
223.1507	11676
223.17198	11686
223.19325	11607
223.21454	11524
223.23582	11602
223.25711	11688
223.2784	11731
223.29967	11642
223.32095	11526
223.34224	11405
223.36353	11427
223.3848	11409
223.40608	11452
223.42737	11509
223.44864	11574
223.46992	11573
223.4912	11578
223.51248	11512
223.53377	11441
223.55504	11462
223.57632	11469
223.5976	11451
223.61888	11422
223.64015	11378
223.66144	11395
223.68271	11404
223.70399	11348
223.72527	11325
223.74655	11235
223.76782	11224
223.78911	11166
223.81038	11159
223.83165	11073
223.85294	11126
223.87421	11129
223.89549	11183
223.91676	11201
223.93803	11169
223.9593	11111
223.98059	11065
224.00186	11152
224.02313	11058
224.04442	10996
224.06569	10997
224.08696	10994
224.10823	10869
224.1295	10902
224.15077	10800
224.17206	10810
224.19333	10847
224.2146	10727
224.23587	10653
224.25714	10688
224.27841	10660
224.29968	10614
224.32095	10638
224.34222	10744
224.36349	10771
224.38477	10830
224.40604	10721
224.42731	10650
224.44858	10648
224.46985	10529
224.49112	10489
224.51239	10547
224.53366	10558
224.55493	10548
224.5762	10578
224.59747	10527
224.61873	10458
224.64	10367
224.66127	10347
224.68254	10441
224.70381	10555
224.72507	10525
224.74634	10445
224.76761	10325
224.78888	10352
224.81013	10339
224.83141	10391
224.85268	10396
224.87393	10439
224.8952	10503
224.91647	10423
224.93773	10356
224.959	10440
224.98026	10362
225.00153	10349
225.02278	10395
225.04405	10334
225.06532	10253
225.08658	10111
225.10785	10143
225.1291	10149
225.15036	10046
225.17163	10011
225.19289	9955
225.21416	10038
225.23541	10043
225.25668	9997
225.27794	9985
225.29919	9952
225.32047	10018
225.34172	10023
225.36298	10057
225.38425	10053
225.4055	10050
225.42676	10026
225.44801	10020
225.46928	9961
225.49054	9920
225.5118	9931
225.53305	9886
225.55431	9824
225.57558	9743
225.59683	9722
225.61809	9739
225.63934	9752
225.6606	9755
225.68185	9733
225.70311	9730
225.72437	9630
225.74562	9641
225.76688	9558
225.78813	9578
225.80939	9621
225.83064	9609
225.8519	9524
225.87315	9575
225.89441	9549
225.91566	9459
225.93692	9434
225.95818	9457
225.97943	9400
226.00069	9470
226.02194	9468
226.04318	9453
226.06444	9398
226.08569	9334
226.10695	9338
226.1282	9362
226.14944	9345
226.1707	9374
226.19196	9329
226.21321	9260
226.23445	9232
226.25571	9217
226.27696	9228
226.2982	9234
226.31946	9297
226.34071	9270
226.36195	9233
226.38321	9260
226.40445	9267
226.4257	9263
226.44695	9260
226.4682	9203
226.48946	9256
226.5107	9168
226.53195	9092
226.55319	9135
226.57443	9105
226.59569	9131
226.61693	9014
226.63818	8978
226.65942	9004
226.68066	8978
226.70192	9023
226.72316	9079
226.74442	9047
226.76566	8991
226.7869	9045
226.80814	9060
226.82939	9033
226.85063	8966
226.87187	9009
226.89311	8951
226.91437	8913
226.93561	8880
226.95685	8856
226.97809	8850
226.99933	8776
227.02058	8777
227.04182	8736
227.06306	8765
227.0843	8821
227.10555	8812
227.12679	8780
227.14803	8763
227.16927	8699
227.19051	8629
227.21175	8575
227.23299	8577
227.25423	8560
227.27547	8534
227.29671	8518
227.31795	8580
227.33919	8628
227.36043	8585
227.38167	8546
227.40289	8588
227.42413	8567
227.44537	8544
227.46661	8535
227.48785	8554
227.50908	8550
227.53032	8537
227.55156	8538
227.5728	8558
227.59402	8639
227.61526	8680
227.63651	8648
227.65775	8599
227.67897	8581
227.70021	8492
227.72144	8475
227.74268	8421
227.76392	8394
227.78514	8362
227.80638	8402
227.82761	8452
227.84885	8486
227.87007	8483
227.89131	8482
227.91254	8517
227.93378	8471
227.955	8557
227.97624	8507
227.99747	8486
228.01871	8532
228.03993	8495
228.06117	8557
228.0824	8465
228.10362	8452
228.12486	8366
228.14609	8417
228.16731	8488
228.18855	8441
228.20978	8473
228.231	8503
228.25223	8489
228.27347	8528
228.29469	8488
228.31592	8537
228.33714	8581
228.35837	8547
228.37959	8487
228.40083	8553
228.42206	8513
228.44328	8517
228.46451	8601
228.48573	8542
228.50696	8591
228.52818	8622
228.54941	8628
228.57063	8536
228.59186	8466
228.61308	8499
228.63431	8533
228.65553	8560
228.67676	8559
228.69798	8633
228.71921	8618
228.74043	8604
228.76166	8655
228.78287	8683
228.80409	8703
228.82532	8676
228.84654	8673
228.86777	8725
228.88899	8725
228.9102	8744
228.93143	8658
228.95265	8653
228.97388	8636
228.99509	8587
229.01631	8780
229.03754	8771
229.05875	8764
229.07997	8770
229.1012	8753
229.12241	8763
229.14363	8837
229.16484	8886
229.18607	8924
229.20728	8949
229.2285	8883
229.24973	8905
229.27094	8887
229.29216	8918
229.31337	8905
229.33458	8892
229.3558	8918
229.37701	8899
229.39824	8875
229.41945	8825
229.44067	8817
229.46188	8774
229.48309	8736
229.50432	8726
229.52553	8709
229.54674	8678
229.56795	8625
229.58917	8644
229.61038	8595
229.63159	8524
229.6528	8515
229.67403	8519
229.69524	8548
229.71645	8510
229.73766	8410
229.75887	8414
229.78008	8361
229.8013	8298
229.82251	8247
229.84372	8165
229.86493	8105
229.88614	8049
229.90735	8009
229.92856	7912
229.94977	7911
229.97098	7846
229.99219	7805
230.0134	7741
230.03461	7662
230.05582	7609
230.07703	7614
230.09824	7513
230.11943	7528
230.14064	7501
230.16185	7508
230.18306	7530
230.20427	7431
230.22548	7386
230.24667	7343
230.26788	7263
230.28909	7257
230.3103	7216
230.3315	7212
230.35271	7155
230.37392	7138
230.39511	7053
230.41632	7018
230.43753	7042
230.45872	7029
230.47993	7037
230.50114	7019
230.52234	7009
230.54355	6989
230.56474	6893
230.58595	6910
230.60715	6937
230.62836	6946
230.64955	6987
230.67076	6937
230.69196	6904
230.71317	6933
230.73436	6933
230.75557	6862
230.77676	6896
230.79796	6898
230.81917	6826
230.84036	6798
230.86156	6766
230.88277	6725
230.90396	6716
230.92516	6712
230.94637	6657
230.96756	6583
230.98875	6600
231.00995	6579
231.03114	6614
231.05235	6620
231.07355	6569
231.09474	6571
231.11594	6613
231.13713	6636
231.15833	6576
231.17952	6505
231.20071	6581
231.22192	6573
231.24312	6567
231.26431	6551
231.28551	6491
231.3067	6523
231.3279	6519
231.34909	6468
231.37027	6484
231.39146	6468
231.41266	6469
231.43385	6474
231.45505	6476
231.47624	6477
231.49744	6432
231.51863	6402
231.53983	6368
231.561	6375
231.5822	6336
231.60339	6347
231.62459	6346
231.64577	6358
231.66696	6333
231.68816	6309
231.70935	6271
231.73053	6221
231.75172	6224
231.77292	6270
231.7941	6262
231.81529	6282
231.83647	6237
231.85767	6169
231.87886	6171
231.90004	6195
231.92123	6190
231.94241	6160
231.96361	6140
231.98479	6167
232.00598	6095
232.02716	6017
232.04834	6000
232.06953	6053
232.09071	6020
232.11191	6026
232.13309	6028
232.15427	6040
232.17546	6035
232.19664	5995
232.21782	6067
232.23901	6005
232.26019	5969
232.28137	5947
232.30257	5926
232.32375	5947
232.34492	5917
232.3661	5883
232.38728	5850
232.40848	5869
232.42966	5872
232.45084	5821
232.47202	5854
232.49319	5892
232.51437	5854
232.53555	5815
232.55673	5827
232.57791	5809
232.59909	5750
232.62027	5763
232.64145	5778
232.66263	5721
232.68381	5732
232.70499	5735
232.72617	5679
232.74734	5706
232.76852	5635
232.7897	5610
232.81088	5648
232.83205	5690
232.85323	5689
232.8744	5654
232.89558	5678
232.91676	5577
232.93793	5570
232.95911	5502
232.98029	5488
233.00146	5466
233.02263	5471
233.04381	5423
233.06499	5427
233.08615	5411
233.10733	5457
233.12851	5433
233.14967	5450
233.17085	5409
233.19202	5397
233.2132	5436
233.23438	5426
233.25554	5458
233.27672	5502
233.29788	5430
233.31906	5460
233.34023	5430
233.36139	5473
233.38257	5429
233.40373	5447
233.42491	5407
233.44608	5403
233.46724	5369
233.48842	5429
233.50958	5302
233.53075	5406
233.55193	5348
233.57309	5425
233.59425	5410
233.61542	5414
233.6366	5392
233.65776	5369
233.67892	5383
233.70009	5391
233.72127	5398
233.74243	5377
233.7636	5441
233.78476	5411
233.80592	5400
233.82709	5347
233.84825	5380
233.86942	5374
233.89058	5354
233.91174	5304
233.93291	5278
233.95407	5336
233.97523	5298
233.9964	5314
234.01756	5316
234.03873	5288
234.05989	5283
234.08105	5273
234.10222	5287
234.12338	5247
234.14453	5273
234.1657	5255
234.18686	5263
234.20802	5255
234.22919	5280
234.25034	5318
234.2715	5312
234.29266	5307
234.31383	5226
234.33498	5211
234.35614	5202
234.3773	5175
234.39845	5168
234.41962	5159
234.44078	5162
234.46193	5127
234.48309	5097
234.50424	5108
234.52541	5143
234.54655	5143
234.56772	5187
234.58887	5093
234.61003	5116
234.63118	5079
234.65234	5094
234.67349	5089
234.69466	5046
234.71581	5061
234.73695	5034
234.75812	5035
234.77927	5029
234.80043	5012
234.82158	5011
234.84273	5026
234.86388	5021
234.88504	5012
234.90619	5041
234.92734	5034
234.94849	5024
234.96965	5002
234.9908	4980
235.01195	4995
235.0331	4992
235.05424	4995
235.07539	4962
235.09656	4976
235.11771	4988
235.13885	4994
235.16	4968
235.18115	4970
235.2023	4952
235.22345	4925
235.2446	4927
235.26575	4923
235.2869	4939
235.30804	4873
235.32919	4883
235.35034	4847
235.37148	4807
235.39262	4835
235.41377	4873
235.43492	4862
235.45607	4872
235.47722	4844
235.49835	4857
235.5195	4807
235.54065	4803
235.5618	4810
235.58293	4801
235.60408	4818
235.62523	4801
235.64638	4811
235.66751	4832
235.68866	4793
235.70981	4778
235.73094	4743
235.75209	4726
235.77322	4635
