Date and Time:                Wed Apr 6 17:54:42.000 2022
Software Version:             4.31.30023.0
Temperature (C):              -40
Model:                        DU940P_BU2
Data Type:                    Counts
Acquisition Mode:             Single Scan
Trigger Mode:                 Internal
Exposure Time (secs):         1200
Readout Mode:                 Full Vertical Binning
Horizontal binning:           1
Extended Dynamic Range:       off
Horizontally flipped:         false
Vertical Shift Speed (usecs): 14.51
Pixel Readout Rate (MHz):     3
Baseline Clamp:               ON
Clock Amplitude:              Normal
Output Amplifier:             High Capacity
Serial Number:                23634
Pre-Amplifier Gain:           1.000000
Spurious Noise Filter Mode:   No Filter
Photon counted:               false
Data Averaging Filter Mode:   No Filter
SR500i:
Serial Number:                
Wavelength (nm):              281
Grating Groove Density (l/mm):2400
Grating Blaze:                BH
Output Flipper Port:          Direct
Accessory Output Port 1:      Off
Accessory Output Port 2:      Off
Accessory Output Port 3:      Off
Accessory Input Port:         On



271.09082	2473
271.10059	2334
271.11035	2171
271.12012	2158
271.12985	2300
271.13962	2241
271.14938	2137
271.15915	2200
271.16891	2033
271.17868	2091
271.18845	2195
271.19818	2455
271.20795	2186
271.21771	2199
271.22748	2107
271.23724	2109
271.24701	2267
271.25674	1989
271.26651	2448
271.27628	2089
271.28604	2087
271.29581	2113
271.30554	2247
271.31531	2084
271.32507	2027
271.33484	2194
271.34457	2094
271.35434	2024
271.36411	1908
271.37387	1934
271.38361	1882
271.39337	2009
271.40314	2016
271.4129	2083
271.42264	2104
271.4324	2214
271.44217	2087
271.45193	2147
271.46167	2154
271.47144	2287
271.4812	1939
271.49094	2125
271.5007	1939
271.51047	1970
271.5202	2172
271.52997	2091
271.53973	2035
271.54947	1832
271.55923	2179
271.569	1938
271.57874	1913
271.5885	1961
271.59827	2015
271.608	2075
271.61777	2101
271.62753	2105
271.63727	2027
271.64703	2264
271.6568	2008
271.66653	1838
271.6763	2089
271.68604	1847
271.6958	2366
271.70557	1847
271.7153	1939
271.72507	1833
271.7348	1968
271.74457	2006
271.7543	2267
271.76407	1994
271.77383	1935
271.78357	1949
271.79333	2280
271.80307	1875
271.81284	2068
271.82257	2069
271.83234	2014
271.84207	1786
271.85184	1910
271.86157	1970
271.87134	1798
271.88107	2013
271.89084	1773
271.9006	1872
271.91034	1734
271.9201	1862
271.92984	1788
271.93958	1878
271.94934	1837
271.95908	1910
271.96884	1866
271.97858	1748
271.98834	1875
271.99808	1844
272.00784	1702
272.01758	1669
272.02734	1994
272.03708	1802
272.04681	1712
272.05658	1706
272.06631	1727
272.07608	1617
272.08582	1747
272.09558	1796
272.10532	1631
272.11505	1703
272.12482	1674
272.13455	1768
272.14432	1986
272.15405	2134
272.16379	1655
272.17355	1709
272.18329	1680
272.19302	1619
272.20279	1813
272.21252	1738
272.22226	1666
272.23203	1867
272.24176	1720
272.25153	1838
272.26126	1555
272.271	1582
272.28073	1629
272.2905	1705
272.30023	1611
272.30997	1949
272.31973	1706
272.32947	1594
272.3392	1624
272.34897	1880
272.3587	1688
272.36844	1696
272.37817	1507
272.38794	1642
272.39767	1692
272.40741	1540
272.41714	1551
272.42691	1538
272.43665	1439
272.44638	1492
272.45612	1677
272.46588	1477
272.47562	1527
272.48535	1669
272.49509	1514
272.50485	1821
272.51459	1473
272.52432	1466
272.53406	1564
272.54379	1836
272.55356	1601
272.56329	1633
272.57303	1527
272.58276	1510
272.5925	1615
272.60223	1457
272.612	1555
272.62173	1492
272.63147	1550
272.6412	1554
272.65094	1965
272.66068	1622
272.67041	1445
272.68018	1410
272.68991	1470
272.69965	1521
272.70938	1502
272.71912	1567
272.72885	1401
272.73859	1702
272.74832	1471
272.75806	1432
272.76779	1458
272.77756	1408
272.78729	1459
272.79703	1409
272.80676	1373
272.8165	1371
272.82623	1398
272.83597	1809
272.8457	1337
272.85544	1451
272.86517	1594
272.87491	1357
272.88464	1710
272.89438	1566
272.90411	1423
272.91385	1551
272.92358	1492
272.93332	1473
272.94305	1641
272.95279	1498
272.96252	1610
272.97226	1432
272.98199	1418
272.99173	1788
273.00146	1417
273.0112	1353
273.02094	1479
273.03067	1491
273.04041	1457
273.05014	1416
273.05988	1430
273.06961	1452
273.07935	1381
273.08908	1411
273.09882	1459
273.10852	1390
273.11826	1365
273.12799	1668
273.13773	1651
273.14746	1517
273.1572	1452
273.16693	1445
273.17667	1376
273.1864	1698
273.19614	1382
273.20584	1404
273.21558	1304
273.22531	1405
273.23505	1385
273.24478	1638
273.25452	1482
273.26422	1509
273.27396	1391
273.28369	1434
273.29343	1467
273.30316	1357
273.3129	1441
273.3226	1332
273.33234	1606
273.34207	1691
273.35181	1482
273.36154	2165
273.37125	1379
273.38098	1459
273.39072	1431
273.40045	1319
273.41019	1472
273.41989	1407
273.42963	1478
273.43936	1296
273.4491	1800
273.4588	1361
273.46854	1408
273.47827	1392
273.48801	1427
273.49771	1341
273.50745	1297
273.51718	1795
273.52689	1383
273.53662	1501
273.54636	1299
273.55609	1368
273.5658	1608
273.57553	1465
273.58527	1283
273.59497	1324
273.60471	1387
273.61444	1380
273.62415	1382
273.63388	1561
273.64362	1489
273.65332	1466
273.66306	2061
273.67279	1602
273.6825	1386
273.69223	1478
273.70193	1348
273.71167	1494
273.72141	1604
273.73111	1433
273.74084	1460
273.75055	1442
273.76028	1331
273.77002	1339
273.77972	1366
273.78946	1512
273.79916	1497
273.8089	1489
273.81863	1537
273.82834	1360
273.83807	1373
273.84778	1359
273.85751	1363
273.86722	1396
273.87695	1484
273.88666	1321
273.89639	1333
273.9061	1397
273.91583	1492
273.92557	1334
273.93527	1471
273.94501	1370
273.95471	1389
273.96445	1371
273.97415	1365
273.98389	1408
273.99359	1427
274.0033	1361
274.01303	1465
274.02274	1468
274.03247	1420
274.04218	1375
274.05191	1504
274.06161	1879
274.07135	1393
274.08105	1491
274.09079	1385
274.10049	1723
274.1102	1588
274.11993	1408
274.12964	1377
274.13937	1341
274.14908	1372
274.15878	1389
274.16852	1398
274.17822	1271
274.18796	1530
274.19766	1402
274.20737	1579
274.2171	1393
274.22681	1321
274.23651	1280
274.24625	1308
274.25595	1294
274.26569	1349
274.27539	1317
274.2851	1536
274.29483	1318
274.30453	1311
274.31424	1297
274.32397	1881
274.33368	1271
274.34338	1463
274.35309	1422
274.36282	1662
274.37253	1462
274.38223	1815
274.39197	1410
274.40167	1408
274.41138	1339
274.42108	1476
274.43082	2431
274.44052	1565
274.45023	1329
274.45993	1335
274.46967	1296
274.47937	1349
274.48907	1314
274.49878	1366
274.50851	1363
274.51822	1341
274.52792	1309
274.53763	1314
274.54733	1624
274.55707	1422
274.56677	1268
274.57648	1299
274.58618	1297
274.59589	1278
274.60562	1213
274.61533	1272
274.62503	1445
274.63474	1333
274.64444	1507
274.65414	1256
274.66388	1284
274.67358	1282
274.68329	1334
274.69299	1380
274.7027	1267
274.7124	1420
274.72211	1362
274.73181	1317
274.74155	1318
274.75125	1191
274.76096	1335
274.77066	1423
274.78036	1348
274.79007	1352
274.79977	1638
274.80948	1355
274.81918	1302
274.82889	1256
274.83859	1289
274.8483	1431
274.85803	1321
274.86774	1409
274.87744	1322
274.88715	1717
274.89685	1392
274.90656	1346
274.91626	1357
274.92596	1332
274.93567	1255
274.94537	1360
274.95508	1282
274.96478	1302
274.97449	1329
274.98419	1761
274.9939	1296
275.0036	1288
275.01331	2737
275.02301	1251
275.03271	1367
275.04242	1507
275.05209	1453
275.0618	1285
275.0715	1282
275.08121	1328
275.09091	1372
275.10062	1347
275.11032	1370
275.12003	1787
275.12973	1978
275.13943	1863
275.14914	1479
275.15884	1280
275.16855	1650
275.17822	1370
275.18793	1335
275.19763	1332
275.20734	1659
275.21704	1463
275.22675	1408
275.23645	1637
275.24615	1292
275.25583	1315
275.26553	1385
275.27524	1333
275.28494	1733
275.29465	1465
275.30435	1373
275.31403	1801
275.32373	1559
275.33344	1373
275.34314	1547
275.35284	1394
275.36252	1479
275.37222	1533
275.38193	1386
275.39163	1406
275.40134	1328
275.41101	1643
275.42072	1365
275.43042	1403
275.44012	1572
275.4498	1374
275.4595	1377
275.46921	1443
275.47891	1576
275.48859	1974
275.49829	1361
275.508	1476
275.51767	1412
275.52737	1597
275.53708	1449
275.54678	1691
275.55646	1858
275.56616	1803
275.57587	1486
275.58554	1538
275.59525	1415
275.60495	1407
275.61462	1655
275.62433	1340
275.63403	1456
275.64371	1572
275.65341	1456
275.66312	1422
275.67279	1589
275.6825	1334
275.69217	1391
275.70187	1361
275.71158	1432
275.72125	1370
275.73096	1392
275.74066	1422
275.75034	1384
275.76004	1279
275.76971	1613
275.77942	1448
275.78909	1441
275.7988	1918
275.8085	1386
275.81818	1340
275.82788	3345
275.83755	1227
275.84726	1559
275.85693	1369
275.86664	1698
275.87631	1384
275.88602	1447
275.89572	1679
275.9054	1544
275.9151	1388
275.92477	1995
275.93448	1370
275.94415	1850
275.95386	1417
275.96353	1418
275.97324	1370
275.98291	1387
275.99258	1432
276.00229	1322
276.01196	1297
276.02167	1488
276.03134	1381
276.04105	1402
276.05072	1317
276.06042	1400
276.0701	1389
276.0798	1977
276.08948	2164
276.09915	1462
276.10886	1565
276.11853	1347
276.12823	1461
276.13791	1629
276.14758	1355
276.15729	1367
276.16696	1341
276.17667	1379
276.18634	1455
276.19601	1371
276.20572	1349
276.21539	1290
276.22507	1352
276.23477	1353
276.24445	1516
276.25412	1301
276.26382	1510
276.2735	1565
276.28317	1437
276.29288	1359
276.30255	1360
276.31223	1329
276.32193	1907
276.3316	1346
276.34128	1355
276.35098	1396
276.36066	1366
276.37033	1365
276.38	1491
276.38971	1412
276.39938	1455
276.40906	1307
276.41873	1376
276.42844	1319
276.43811	1360
276.44778	1369
276.45746	1410
276.46716	1271
276.47684	1482
276.48651	1285
276.49619	1304
276.50586	1302
276.51556	1795
276.52524	1329
276.53491	1357
276.54459	1420
276.55426	1264
276.56396	1397
276.57364	1371
276.58331	1653
276.59299	1275
276.60266	1361
276.61234	1455
276.62204	1298
276.63171	1424
276.64139	1418
276.65106	1351
276.66074	1370
276.67041	1379
276.68008	1433
276.68976	1548
276.69946	1303
276.70914	1463
276.71881	1294
276.72849	1423
276.73816	1403
276.74783	1364
276.75751	1419
276.76718	1363
276.77686	1381
276.78653	1304
276.7962	1442
276.80588	1327
276.81558	1520
276.82526	1338
276.83493	1362
276.8446	1373
276.85428	1341
276.86395	1301
276.87363	1358
276.8833	1585
276.89297	1373
276.90265	1506
276.91232	1270
276.922	1417
276.93167	1345
276.94135	1418
276.95102	1419
276.96069	1410
276.97037	1388
276.98004	1394
276.98972	1333
276.99936	1400
277.00903	1387
277.01871	1392
277.02838	1686
277.03806	1419
277.04773	1376
277.0574	1654
277.06708	1364
277.07675	1632
277.08643	1387
277.0961	1363
277.10577	1430
277.11545	1360
277.12509	1410
277.13477	1352
277.14444	1365
277.15411	1295
277.16379	1330
277.17346	1327
277.18314	1390
277.19281	1312
277.20245	1548
277.21213	1334
277.2218	1396
277.23148	1369
277.24115	1316
277.25082	1302
277.26047	1401
277.27014	1334
277.27982	1373
277.28949	1384
277.29916	1398
277.30881	1389
277.31848	1521
277.32816	1596
277.33783	1884
277.34747	1439
277.35715	1368
277.36682	1383
277.3765	1464
277.38614	1311
277.39581	1324
277.40549	1342
277.41516	1340
277.4248	1432
277.43448	1330
277.44415	1315
277.45383	1487
277.46347	1285
277.47314	1368
277.48282	1357
277.49246	1300
277.50214	1435
277.51181	1304
277.52145	1405
277.53113	1332
277.5408	1441
277.55045	1310
277.56012	1346
277.56979	1355
277.57944	1291
277.58911	1480
277.59879	1324
277.60843	1735
277.6181	1383
277.62778	1289
277.63742	1473
277.64709	1278
277.65674	1363
277.66641	1420
277.67609	1380
277.68573	1340
277.6954	1318
277.70505	1673
277.71472	1329
277.7244	1306
277.73404	1313
277.74371	1316
277.75336	1391
277.76303	1605
277.77267	1368
277.78235	1361
277.79199	1314
277.80167	1285
277.81134	1330
277.82098	1645
277.83066	1585
277.8403	1407
277.84998	1318
277.85962	1369
277.86929	1381
277.87894	1389
277.88861	1414
277.89825	1294
277.90793	1308
277.91757	1307
277.92722	1399
277.93689	1302
277.94653	1581
277.95621	1399
277.96585	1602
277.97552	1361
277.98517	1276
277.99484	1567
278.00449	1386
278.01413	1330
278.0238	1740
278.03345	1415
278.04312	1378
278.05276	1357
278.06241	1321
278.07208	1333
278.08173	1523
278.0914	1293
278.10104	1364
278.11069	1381
278.12036	1372
278.13	1324
278.13965	1367
278.14932	1366
278.15897	1348
278.16861	1384
278.17828	1494
278.18793	1230
278.19757	1286
278.20724	1546
278.21689	1348
278.22653	1289
278.23621	1291
278.24585	1392
278.25549	1454
278.26517	1301
278.27481	1264
278.28445	1273
278.2941	1579
278.30377	1227
278.31342	1572
278.32306	1261
278.3327	1532
278.34238	1480
278.35202	1362
278.36166	1255
278.37131	1317
278.38098	1354
278.39063	1338
278.40027	1363
278.40991	1393
278.41956	1346
278.42923	1339
278.43887	1867
278.44852	1626
278.45816	1341
278.4678	1360
278.47748	1416
278.48712	2602
278.49677	1278
278.50641	1745
278.51605	1633
278.5257	1547
278.53537	1662
278.54501	1354
278.55466	1257
278.5643	1380
278.57394	1271
278.58359	1418
278.59323	1308
278.60287	1351
278.61252	1356
278.62219	1793
278.63184	1618
278.64148	1637
278.65112	1271
278.66077	1281
278.67041	1355
278.68005	1804
278.6897	2075
278.69934	26924
278.70898	4688
278.71863	1407
278.72827	1382
278.73792	1339
278.74756	1412
278.7572	1616
278.76685	1323
278.77649	1387
278.78613	1465
278.79578	1341
278.80542	1293
278.81506	1298
278.82471	1404
278.83435	1385
278.84399	1271
278.85364	1331
278.86328	1283
278.87292	1389
278.88257	1326
278.89221	1278
278.90186	1382
278.9115	1412
278.92114	1267
278.93079	1590
278.94043	1400
278.95007	1376
278.95972	1439
278.96936	1297
278.979	1486
278.98862	1274
278.99826	1380
279.0079	1441
279.01755	1497
279.02719	1285
279.03683	1305
279.04648	1419
279.05612	1612
279.06573	1374
279.07538	1346
279.08502	1352
279.09467	1324
279.10431	1320
279.11395	1770
279.1236	1352
279.13321	1404
279.14285	1608
279.1525	1327
279.16214	1350
279.17178	1716
279.1814	1407
279.19104	1639
279.20068	1400
279.21033	1670
279.21997	1311
279.22958	1460
279.23923	1266
279.24887	1298
279.25851	1349
279.26813	1287
279.27777	1298
279.28741	1456
279.29706	1358
279.30667	1986
279.31631	1428
279.32596	1518
279.33557	1341
279.34521	1407
279.35486	1401
279.3645	1417
279.37411	1328
279.38376	1671
279.3934	1442
279.40302	1502
279.41266	1363
279.4223	1366
279.43192	1440
279.44156	1443
279.4512	1248
279.46082	1730
279.47046	1440
279.48007	1400
279.48972	1349
279.49936	1660
279.50897	1587
279.51862	1375
279.52826	1418
279.53787	1401
279.54752	1609
279.55713	1390
279.56677	1422
279.57642	1396
279.58603	1325
279.59567	1410
279.60529	1407
279.61493	1352
279.62454	1395
279.63419	1413
279.6438	1410
279.65344	1395
279.66309	1435
279.6727	1379
279.68234	1392
279.69196	1395
279.7016	1287
279.71121	1428
279.72086	1679
279.73047	1329
279.74011	1570
279.74973	1473
279.75937	1380
279.76898	1331
279.77863	1546
279.78824	1459
279.79788	1599
279.8075	1341
279.81711	1361
279.82675	1676
279.83636	1609
279.84601	1421
279.85562	1384
279.86526	1406
279.87488	1430
279.88449	1505
279.89413	1440
279.90375	1446
279.91339	1391
279.923	1656
279.93262	1378
279.94226	1506
279.95187	1445
279.96152	1610
279.97113	1433
279.98074	1454
279.99039	1587
280	1729
280.00961	1465
280.01926	1584
280.02887	1505
280.03848	1465
280.04813	1594
280.05774	1431
280.06735	1456
280.077	1426
280.08661	2018
280.09622	1373
280.10587	1374
280.11548	1466
280.12509	1408
280.1347	1432
280.14435	1445
280.15396	1557
280.16357	1659
280.17319	1403
280.18283	1492
280.19244	1488
280.20206	1422
280.21167	1539
280.22131	1465
280.23093	1518
280.24054	1463
280.25015	1454
280.2598	1450
280.26941	1471
280.27902	1483
280.28864	1653
280.29825	1520
280.30789	1398
280.3175	1417
280.32712	1810
280.33673	1459
280.34634	1538
280.35596	1500
280.3656	1851
280.37521	1679
280.38483	1706
280.39444	1735
280.40405	1435
280.41367	1451
280.42328	1492
280.43289	1489
280.44254	1594
280.45215	1551
280.46176	1475
280.47137	1507
280.48099	1544
280.4906	1453
280.50021	1519
280.50983	1503
280.51944	1493
280.52905	1556
280.53867	1519
280.54828	1676
280.55789	1608
280.56754	1529
280.57715	1500
280.58676	1538
280.59637	1567
280.60599	1491
280.6156	1648
280.62521	1508
280.63483	1536
280.64444	1682
280.65405	1500
280.66367	1535
280.67328	1584
280.68289	1578
280.6925	1486
280.70212	1637
280.7117	1538
280.72131	1610
280.73093	1588
280.74054	1571
280.75015	1652
280.75977	1535
280.76938	1841
280.77899	1503
280.7886	1513
280.79822	1595
280.80783	1540
280.81744	1594
280.82706	1538
280.83667	1542
280.84625	1498
280.85587	1516
280.86548	1580
280.87509	1629
280.8847	1719
280.89432	1663
280.90393	1604
280.91351	1557
280.92313	1512
280.93274	1512
280.94235	1631
280.95197	1668
280.96158	1476
280.97116	1495
280.98077	1562
280.99039	1569
281	1585
281.00961	1555
281.0192	1511
281.02881	2010
281.03842	1548
281.04803	1655
281.05765	1497
281.06723	1550
281.07684	1592
281.08646	1586
281.09607	1477
281.10565	1493
281.11526	1814
281.12488	1453
281.13449	1740
281.14407	1458
281.15369	1529
281.1633	1380
281.17288	1448
281.1825	1450
281.19211	1413
281.20169	1624
281.2113	1485
281.22092	1592
281.23053	1348
281.24011	1414
281.24973	1429
281.25934	1398
281.26892	1517
281.27853	1457
281.28812	1777
281.29773	1410
281.30734	1422
281.31693	1540
281.32654	1391
281.33615	1877
281.34573	1468
281.35535	1452
281.36493	1415
281.37454	1429
281.38416	1774
281.39374	1497
281.40335	1429
281.41293	1467
281.42255	1429
281.43213	1356
281.44174	1680
281.45135	1699
281.46094	1443
281.47055	1581
281.48013	1427
281.48975	1411
281.49933	1401
281.50894	1408
281.51852	1363
281.52814	1324
281.53772	1415
281.54733	1488
281.55692	1465
281.56653	1454
281.57611	1329
281.58572	1590
281.59531	1383
281.60492	1419
281.6145	1388
281.62411	1431
281.6337	1390
281.64328	1374
281.65289	1450
281.66248	1560
281.67209	1418
281.68167	1399
281.69128	1386
281.70087	1324
281.71045	1330
281.72006	1536
281.72964	1298
281.73926	1453
281.74884	1366
281.75842	1412
281.76804	1389
281.77762	1997
281.7872	1399
281.79681	1563
281.8064	1664
281.81598	1483
281.82559	1877
281.83517	1393
281.84476	1337
281.85437	1344
281.86395	1371
281.87354	1379
281.88315	1348
281.89273	1379
281.90231	1312
281.91193	1313
281.92151	1392
281.93109	1610
281.9407	1313
281.95029	1819
281.95987	1252
281.96945	1549
281.97906	1284
281.98865	1382
281.99823	1388
282.00781	1624
282.01743	1602
282.02701	1586
282.03659	1347
282.04617	1417
282.05576	1361
282.06537	1289
282.07495	1361
282.08453	1651
282.09412	1281
282.1037	1361
282.11331	1470
282.12289	1349
282.13248	1340
282.14206	1345
282.15164	1303
282.16122	1340
282.17084	1363
282.18042	1397
282.19	1450
282.19958	1385
282.20917	1331
282.21875	1351
282.22833	1279
282.23792	1549
282.24753	1422
282.25711	1305
282.26669	1307
282.27628	1272
282.28586	1356
282.29544	1286
282.30502	1636
282.31461	1231
282.32419	1268
282.33377	1370
282.34335	1325
282.35294	1316
282.36252	1424
282.3721	1210
282.38168	1348
282.39127	1279
282.40085	1350
282.41043	1362
282.42001	1318
282.4296	1251
282.43918	1334
282.44876	1257
282.45834	1258
282.46793	1409
282.47751	1328
282.48709	1338
282.49667	1279
282.50626	1312
282.51584	1258
282.52542	1261
282.535	1292
282.54459	1277
282.55417	1619
282.56375	1284
282.57333	1290
282.58292	1245
282.5925	1497
282.60208	1279
282.61163	1223
282.62122	1250
282.6308	1256
282.64038	1276
282.64996	1368
282.65955	1238
282.66913	1365
282.67871	1263
282.68826	1247
282.69785	1203
282.70743	1263
282.71701	1469
282.72659	1291
282.73618	1202
282.74573	1290
282.75531	1322
282.76489	1888
282.77448	1293
282.78406	1214
282.79361	1307
282.80319	1251
282.81277	1274
282.82236	1246
282.83194	1267
282.84149	1273
282.85107	1641
282.86066	1293
282.87024	1210
282.87979	1284
282.88937	1274
282.89896	1372
282.90854	1258
282.91809	1312
282.92767	1464
282.93726	1504
282.94681	1721
282.95639	1896
282.96597	1231
282.97552	1317
282.98511	1210
282.99469	1247
283.00424	1378
283.01382	1213
283.02341	1218
283.03296	1241
283.04254	1265
283.05212	1257
283.06168	1320
283.07126	1291
283.08084	1253
283.09039	1208
283.09998	1172
283.10956	1302
283.11911	1172
283.12869	1605
283.13824	1312
283.14783	1203
283.15741	1259
283.16696	1494
283.17654	1156
283.1861	1252
283.19568	1235
283.20523	1345
283.21481	1295
283.22437	1166
283.23395	1563
283.24353	1204
283.25308	1218
283.26266	1333
283.27222	1162
283.2818	1384
283.29135	1305
283.30093	1426
283.31049	1222
283.32007	1186
283.32962	1447
283.3392	1238
283.34875	1291
283.35834	1213
283.36789	1259
283.37744	1242
283.38702	1180
283.39658	1227
283.40616	1212
283.41571	1211
283.42529	1274
283.43484	1197
283.44443	1201
283.45398	1264
283.46353	1200
283.47311	1589
283.48267	1347
283.49225	1374
283.5018	1219
283.51135	1183
283.52094	1240
283.53049	1335
283.54004	1176
283.54962	1171
283.55917	1235
283.56873	1168
283.57831	1207
283.58786	1266
283.59744	1197
283.60699	1328
283.61655	1222
283.6261	1212
283.63568	1116
283.64523	1297
283.65479	1468
283.66437	1516
283.67392	1130
283.68347	1215
283.69305	1220
283.70261	1175
283.71216	1179
283.72171	1299
283.73129	1196
283.74084	1262
283.7504	1231
283.75995	1159
283.76953	1231
283.77908	1368
283.78864	1298
283.79819	1136
283.80774	1149
283.81732	1135
283.82687	1261
283.83643	1169
283.84598	1161
283.85553	1199
283.86511	1223
283.87466	1177
283.88422	1237
283.89377	1337
283.90332	1181
283.91287	1158
283.92245	1251
283.93201	1157
283.94156	1149
283.95111	1206
283.96066	1213
283.97021	1175
283.97977	1220
283.98932	1230
283.99887	1179
284.00845	1254
284.01801	1213
284.02756	1194
284.03711	1221
284.04666	1213
284.05621	1118
284.06577	1548
284.07532	1706
284.08487	1394
284.09442	1823
284.10397	1225
284.11353	1266
284.12308	1204
284.13263	1197
284.14218	1429
284.15173	1164
284.16129	1196
284.17084	1683
284.18039	1148
284.18994	1157
284.19949	1394
284.20905	1109
284.2186	1175
284.22815	1265
284.2377	1158
284.24725	1415
284.25681	1317
284.26636	1339
284.27591	1189
284.28546	1148
284.29501	1195
284.30457	1162
284.31412	1209
284.32367	1165
284.33319	1182
284.34274	1496
284.35229	1254
284.36185	1151
284.3714	1158
284.38095	1194
284.3905	1334
284.40005	1107
284.40961	1152
284.41913	1195
284.42868	1158
284.43823	1225
284.44778	1513
284.45734	1172
284.46689	1482
284.47641	1174
284.48596	1246
284.49551	1154
284.50507	1147
284.51462	1212
284.52414	1286
284.53369	1210
284.54324	1394
284.5528	1070
284.56235	1186
284.57187	1105
284.58142	1176
284.59097	1134
284.60052	1153
284.61005	1216
284.6196	1136
284.62915	2333
284.6387	1091
284.64822	1153
284.65778	1149
284.66733	1471
284.67685	1375
284.6864	1275
284.69595	1176
284.70547	1236
284.71503	1312
284.72458	1250
284.7341	1300
284.74365	1191
284.7532	1137
284.76273	1108
284.77228	1149
284.78183	1142
284.79135	1222
284.8009	1170
284.81046	1193
284.81998	1293
284.82953	1294
284.83905	1147
284.8486	1120
284.85815	1126
284.86768	1205
284.87723	1160
284.88675	1113
284.8963	1131
284.90585	1227
284.91537	1274
284.92493	1167
284.93445	1189
284.944	1189
284.95352	1181
284.96307	1143
284.9726	1383
284.98215	1180
284.99167	1164
285.00122	1250
285.01074	1276
285.02029	1227
285.02982	1211
285.03937	1254
285.04889	1268
285.05844	1325
285.06796	1171
285.07751	1258
285.08704	1147
285.09659	1224
285.10611	1452
285.11566	1194
285.12518	1446
285.13474	1205
285.14426	1216
285.15378	1143
285.16333	1189
285.17285	1194
285.1824	1179
285.19193	1077
285.20145	1157
285.211	1105
285.22052	1329
285.23007	1400
285.23959	1253
285.24911	1218
285.25867	2167
285.26819	1627
285.27771	1065
285.28726	1463
285.29678	1146
285.3063	1155
285.31586	1212
285.32538	1140
285.3349	1154
285.34445	1128
285.35397	1230
285.36349	1170
285.37305	1160
285.38257	1288
285.39209	1127
285.40161	1164
285.41116	1148
285.42068	1208
285.43021	1148
285.43976	1161
285.44928	1182
285.4588	1197
285.46832	1141
285.47784	1189
285.4874	1184
285.49692	1139
285.50644	1182
285.51596	1159
285.52551	1198
285.53503	1135
285.54456	1335
285.55408	1221
285.5636	1395
285.57312	1550
285.58267	1127
285.59219	1549
285.60172	1157
285.61124	1198
285.62076	1201
285.63028	1151
285.63983	1123
285.64935	1255
285.65887	1166
285.6684	1264
285.67792	1171
285.68744	1737
285.69696	1175
285.70648	1167
285.716	1435
285.72556	1159
285.73508	1153
285.7446	1158
285.75412	1150
285.76364	1206
285.77316	1162
285.78268	1199
285.79221	1227
285.80173	1476
285.81125	1269
285.82077	1305
285.83029	1192
285.83981	1267
285.84933	1156
285.85886	1237
285.86838	1261
285.8779	1155
285.88742	1274
285.89694	1452
285.90646	1142
285.91599	2000
285.92551	1124
285.93503	1211
285.94455	1197
285.95407	1171
285.96359	1187
285.97311	1414
285.98264	1361
285.99216	1301
286.00168	1169
286.01117	1194
286.02069	1247
286.03021	1182
286.03973	1560
286.04926	1156
286.05878	1155
286.0683	1205
286.07782	1323
286.08734	1186
286.09683	1201
286.10635	1189
286.11588	1198
286.1254	1284
286.13492	1300
286.14444	1369
286.15393	1261
286.16345	1269
286.17297	1210
286.1825	1257
286.19202	1241
286.20154	1179
286.21103	1197
286.22055	1267
286.23007	1275
286.23959	1244
286.24908	1191
286.25861	1458
286.26813	1274
286.27765	1154
286.28714	1366
286.29666	1209
286.30618	1248
286.3157	1185
286.3252	1214
286.33472	1324
286.34424	1228
286.35376	1272
286.36325	1480
286.37277	1241
286.38229	1283
286.39178	1150
286.40131	1358
286.41083	1271
286.42032	1207
286.42984	1194
286.43936	1235
286.44885	1442
286.45837	1546
286.4679	1203
286.47739	1223
286.48691	1234
286.4964	1332
286.50592	1196
286.51544	1233
286.52493	1285
286.53445	1120
286.54395	1303
286.55347	1371
286.56299	1209
286.57248	1266
286.582	1575
286.59149	1621
286.60101	1343
286.6105	1246
286.62003	1230
286.62955	1187
286.63904	1369
286.64856	1293
286.65805	1145
286.66757	1201
286.67706	1182
286.68658	1297
286.69608	1219
286.7056	1217
286.71509	1173
286.72461	1191
286.7341	1213
286.74362	1216
286.75311	1346
286.76263	1251
286.77213	1366
286.78162	1288
286.79114	1176
286.80063	1619
286.81015	1181
286.81964	1195
286.82916	1179
286.83865	1255
286.84814	1223
286.85767	1262
286.86716	1262
286.87668	1582
286.88617	1181
286.89566	1175
286.90518	1341
286.91467	1167
286.92419	1414
286.93369	1314
286.94318	1322
286.9527	1192
286.96219	1358
286.97168	1308
286.9812	1228
286.99069	1249
287.00018	1230
287.0097	1288
287.0192	1188
287.02869	1294
287.03818	1178
287.0477	1228
287.05719	1169
287.06668	1310
287.0762	1250
287.08569	1220
287.09518	1294
287.10468	1261
287.1142	1595
287.12369	1596
287.13318	1362
287.14267	1254
287.15219	1245
287.16168	1297
287.17117	1206
287.18066	1223
287.19016	1169
287.19968	1266
287.20917	1463
287.21866	1198
287.22815	1243
287.23764	1276
287.24716	1298
287.25665	1222
287.26614	1261
287.27563	1249
287.28513	1193
287.29462	1175
287.30411	1546
287.31363	1232
287.32312	1440
287.33261	1272
287.3421	1232
287.35159	1417
287.36108	1294
287.37057	1253
287.38007	1211
287.38956	1279
287.39905	1352
287.40854	1261
287.41806	1230
287.42755	1391
287.43704	1198
287.44653	1212
287.45602	1236
287.46552	1333
287.47501	1232
287.4845	1339
287.49399	1256
287.50348	1306
287.51297	1286
287.52246	1315
287.53195	1278
287.54144	1387
287.55093	1256
287.56042	1690
287.56992	1292
287.57941	1361
287.5889	1196
287.59839	1197
287.60788	1297
287.61737	1190
287.62683	2053
287.63632	1314
287.64581	1320
287.6553	1328
287.66479	1318
287.67429	1413
287.68378	1230
287.69327	1256
287.70276	1219
287.71225	1326
287.72174	1280
287.7312	1345
287.74069	1239
287.75018	1206
287.75967	1235
287.76917	1330
287.77866	1230
287.78812	1649
287.79761	1280
287.8071	1388
287.81659	1278
287.82608	1346
287.83557	1235
287.84503	1208
287.85452	1331
287.86401	1309
287.8735	1309
287.883	1296
287.89246	1357
287.90195	1287
287.91144	1410
287.92093	1337
287.93039	1292
287.93988	1379
287.94937	1292
287.95886	1344
287.96832	1279
287.97781	1298
287.9873	1967
287.99677	1267
288.00626	1270
288.01575	1264
288.02524	1270
288.0347	1855
288.04419	1327
288.05368	1514
288.06314	1305
288.07263	1228
288.08212	1218
288.09158	1362
288.10107	1381
288.11053	1298
288.12003	1234
288.12952	1390
288.13898	1268
288.14847	1511
288.15796	1221
288.16742	1298
288.17691	1310
288.18637	1302
288.19586	1298
288.20535	1271
288.21481	1309
288.2243	1364
288.23376	1313
288.24326	1594
288.25272	1753
288.26221	1246
288.27167	1388
288.28116	1329
288.29065	1383
288.30011	1512
288.3096	1334
288.31906	1325
288.32855	1288
288.33801	1228
288.3475	1336
288.35696	1282
288.36646	1367
288.37592	1289
288.38538	1305
288.39487	1321
288.40433	1362
288.41382	1325
288.42328	1368
288.43277	1343
288.44223	1299
288.45172	1332
288.46118	1328
288.47064	1292
288.48013	1453
288.48959	1280
288.49908	1348
288.50854	1301
288.51801	1297
288.5275	1738
288.53696	1293
288.54645	1264
288.55591	1425
288.56537	1291
288.57486	1374
288.58432	1857
288.59378	1314
288.60327	1262
288.61273	1336
288.62219	1281
288.63168	1314
288.64114	1372
288.6506	1357
288.6601	1343
288.66956	1283
288.67902	1449
288.68848	1327
288.69797	1250
288.70743	1312
288.71689	1288
288.72635	1338
288.73584	1641
288.7453	1246
288.75476	1341
288.76422	1333
288.77371	1380
288.78317	1334
288.79263	1491
288.80209	1260
288.81155	1406
288.82104	1292
288.83051	1288
288.83997	1327
288.84943	1410
288.85889	1366
288.86838	1252
288.87784	1320
288.8873	1237
288.89676	1282
288.90622	1257
288.91568	1238
288.92514	1504
288.93463	1325
288.94409	1309
288.95355	1341
288.96301	1527
288.97247	1230
288.98193	1322
288.99139	1340
289.00085	1364
289.01031	1163
289.01978	1239
289.02927	1264
289.03873	1244
289.04819	1258
289.05765	1494
289.06711	1291
289.07657	1273
289.08603	1252
289.09549	1501
289.10495	1206
289.11441	1244
289.12387	1428
289.13333	1224
289.14279	1271
289.15225	1277
289.16171	2207
289.17117	1318
289.18063	1254
289.19009	1247
289.19955	1260
289.20901	1261
289.21848	1249
289.22794	1282
289.2374	1300
289.24683	1274
289.25629	1840
289.26575	1148
289.27521	1241
289.28467	1270
289.29413	1214
289.30359	1284
289.31305	1298
289.32251	1262
289.33197	1333
289.3414	1219
289.35086	1283
289.36032	1252
289.36978	1229
289.37924	1593
289.3887	1186
289.39816	1268
289.40759	1285
289.41705	1257
289.42651	1201
289.43597	1221
289.44543	1254
289.45486	1253
289.46432	1221
289.47379	1252
289.48325	1360
289.49271	1607
289.50214	1142
289.5116	1295
289.52106	1240
289.53052	1205
289.53995	1243
289.54941	1286
289.55887	1583
289.56833	1128
289.57776	1188
289.58722	1184
289.59668	1216
289.60611	1198
289.61557	1286
289.62503	1542
289.63449	1241
289.64392	1292
289.65338	1221
289.66284	1244
289.67227	1339
289.68173	1159
289.69119	1158
289.70062	1186
289.71008	1307
289.71951	1233
289.72897	1211
289.73843	1203
289.74786	1557
289.75732	1096
289.76678	1977
289.77621	1572
289.78568	1203
289.7951	1183
289.80457	1273
289.814	1209
289.82346	1257
289.83292	1296
289.84235	1205
289.85181	1318
289.86124	1351
289.8707	1336
289.88013	1234
289.88959	1262
289.89902	1198
289.90848	1220
289.91791	1236
289.92737	1216
289.9368	1167
289.94626	1244
289.95569	1223
289.96515	1534
289.97458	1141
289.98404	1438
289.99347	1200
290.00293	1226
290.01236	1427
290.02182	1366
290.03125	1207
290.04068	1319
290.05014	1761
290.05957	1174
290.06903	1652
290.07846	1138
290.08792	1309
290.09735	1232
290.10678	1248
290.11624	1478
290.12567	1555
290.1351	1226
290.14456	1232
290.15399	1305
290.16345	1188
290.17288	1188
290.18231	1195
290.19177	1240
290.2012	1222
290.21063	1226
290.22009	1262
290.22952	1291
290.23895	1313
290.24838	1294
290.25784	1226
290.26727	1481
290.2767	1213
290.28616	1329
290.29559	1166
290.30502	1185
290.31445	1240
290.32391	1282
290.33334	1263
290.34277	1241
290.3522	1259
290.36166	1572
290.37109	1212
290.38052	1261
290.38995	1223
290.39938	1207
290.40884	1429
290.41827	1180
290.4277	1225
290.43713	1202
290.44656	1212
290.45602	1185
290.46545	1597
290.47488	1263
290.48431	1332
290.49374	1335
290.50317	1220
290.5126	1247
290.52206	1638
290.53149	1529
290.54092	1222
290.55035	1316
290.55978	1251
290.56921	1279
290.57864	1199
290.58807	1210
290.5975	1266
290.60693	1286
290.61636	1455
290.62579	1365
290.63525	1126
290.64468	1329
290.65411	1276
290.66354	1406
290.67297	1406
290.6824	1280
290.69183	1306
290.70126	1330
290.71069	1291
290.72012	1343
290.72955	1249
290.73898	1391
290.74841	1371
