Date and Time:                Wed Apr 6 15:53:05.000 2022
Software Version:             4.31.30023.0
Temperature (C):              -40
Model:                        DU940P_BU2
Data Type:                    Counts
Acquisition Mode:             Single Scan
Trigger Mode:                 Internal
Exposure Time (secs):         0.5
Readout Mode:                 Full Vertical Binning
Horizontal binning:           1
Extended Dynamic Range:       off
Horizontally flipped:         false
Vertical Shift Speed (usecs): 14.51
Pixel Readout Rate (MHz):     3
Baseline Clamp:               ON
Clock Amplitude:              Normal
Output Amplifier:             High Capacity
Serial Number:                23634
Pre-Amplifier Gain:           1.000000
Spurious Noise Filter Mode:   No Filter
Photon counted:               false
Data Averaging Filter Mode:   No Filter
SR500i:
Serial Number:                
Wavelength (nm):              281
Grating Groove Density (l/mm):2400
Grating Blaze:                BH
Output Flipper Port:          Direct
Accessory Output Port 1:      Off
Accessory Output Port 2:      Off
Accessory Output Port 3:      Off
Accessory Input Port:         On



271.09082	31846
271.10059	30293
271.11035	30478
271.12012	30571
271.12985	30636
271.13962	30454
271.14938	30195
271.15915	30296
271.16891	30664
271.17868	30622
271.18845	30568
271.19818	30326
271.20795	30346
271.21771	30472
271.22748	30327
271.23724	30227
271.24701	30310
271.25674	30833
271.26651	30827
271.27628	30591
271.28604	30330
271.29581	30157
271.30554	30123
271.31531	30096
271.32507	29924
271.33484	29833
271.34457	30005
271.35434	29904
271.36411	29824
271.37387	29740
271.38361	29883
271.39337	29864
271.40314	29891
271.4129	29913
271.42264	29783
271.4324	29590
271.44217	29562
271.45193	29622
271.46167	29657
271.47144	29644
271.4812	29634
271.49094	29783
271.5007	30054
271.51047	30155
271.5202	29976
271.52997	29824
271.53973	29859
271.54947	29820
271.55923	29810
271.569	29989
271.57874	30304
271.5885	30426
271.59827	30286
271.608	30242
271.61777	30247
271.62753	30099
271.63727	30116
271.64703	30240
271.6568	30380
271.66653	30396
271.6763	30257
271.68604	30232
271.6958	30242
271.70557	30171
271.7153	30073
271.72507	29951
271.7348	30041
271.74457	29905
271.7543	29800
271.76407	29840
271.77383	29951
271.78357	29996
271.79333	29957
271.80307	30043
271.81284	30209
271.82257	30043
271.83234	30064
271.84207	30087
271.85184	29962
271.86157	29916
271.87134	29814
271.88107	29756
271.89084	29856
271.9006	29572
271.91034	29594
271.9201	29626
271.92984	29634
271.93958	29606
271.94934	29535
271.95908	29543
271.96884	29508
271.97858	29412
271.98834	29453
271.99808	29715
272.00784	29807
272.01758	29885
272.02734	29829
272.03708	29865
272.04681	29794
272.05658	29757
272.06631	29736
272.07608	29829
272.08582	29897
272.09558	29883
272.10532	29740
272.11505	29609
272.12482	29548
272.13455	29503
272.14432	29566
272.15405	29828
272.16379	30137
272.17355	30152
272.18329	30231
272.19302	30058
272.20279	29944
272.21252	30049
272.22226	30110
272.23203	30275
272.24176	30504
272.25153	30615
272.26126	30546
272.271	30475
272.28073	30471
272.2905	30411
272.30023	30356
272.30997	30503
272.31973	30519
272.32947	30394
272.3392	30192
272.34897	30194
272.3587	30258
272.36844	30247
272.37817	30007
272.38794	29810
272.39767	29839
272.40741	29911
272.41714	30009
272.42691	29983
272.43665	29867
272.44638	29883
272.45612	29998
272.46588	30244
272.47562	30323
272.48535	30351
272.49509	30306
272.50485	30242
272.51459	30253
272.52432	30051
272.53406	30088
272.54379	30100
272.55356	30138
272.56329	29896
272.57303	29765
272.58276	29908
272.5925	30014
272.60223	30018
272.612	30040
272.62173	30064
272.63147	29960
272.6412	29731
272.65094	29775
272.66068	29924
272.67041	30023
272.68018	30135
272.68991	30119
272.69965	30251
272.70938	30232
272.71912	30082
272.72885	30087
272.73859	30016
272.74832	30032
272.75806	30058
272.76779	30134
272.77756	30117
272.78729	29992
272.79703	29898
272.80676	29956
272.8165	30287
272.82623	30368
272.83597	30300
272.8457	30203
272.85544	30364
272.86517	30240
272.87491	30245
272.88464	30291
272.89438	30454
272.90411	30600
272.91385	30748
272.92358	30526
272.93332	30499
272.94305	30774
272.95279	30871
272.96252	30740
272.97226	30744
272.98199	30770
272.99173	30732
273.00146	30615
273.0112	30594
273.02094	30649
273.03067	30598
273.04041	30593
273.05014	30446
273.05988	30398
273.06961	30743
273.07935	30580
273.08908	30711
273.09882	30541
273.10852	30435
273.11826	30493
273.12799	30774
273.13773	30778
273.14746	30833
273.1572	30841
273.16693	30850
273.17667	30704
273.1864	30588
273.19614	30472
273.20584	30480
273.21558	30560
273.22531	30356
273.23505	30366
273.24478	30445
273.25452	30698
273.26422	30624
273.27396	30647
273.28369	30659
273.29343	30610
273.30316	30365
273.3129	30089
273.3226	29997
273.33234	30016
273.34207	30140
273.35181	30208
273.36154	30414
273.37125	30571
273.38098	30408
273.39072	30294
273.40045	30213
273.41019	30305
273.41989	30200
273.42963	30507
273.43936	30722
273.4491	30717
273.4588	30662
273.46854	30695
273.47827	30922
273.48801	31140
273.49771	31170
273.50745	30990
273.51718	30907
273.52689	30971
273.53662	30948
273.54636	30742
273.55609	30567
273.5658	30634
273.57553	30711
273.58527	30673
273.59497	30784
273.60471	31089
273.61444	31025
273.62415	31062
273.63388	31092
273.64362	31086
273.65332	31175
273.66306	31200
273.67279	31368
273.6825	31362
273.69223	31418
273.70193	31138
273.71167	31107
273.72141	31091
273.73111	31047
273.74084	31041
273.75055	31154
273.76028	31093
273.77002	31110
273.77972	31183
273.78946	31208
273.79916	31132
273.8089	31292
273.81863	31327
273.82834	31262
273.83807	31449
273.84778	31204
273.85751	31058
273.86722	31058
273.87695	31135
273.88666	31118
273.89639	31004
273.9061	31318
273.91583	31575
273.92557	31427
273.93527	31118
273.94501	30811
273.95471	30725
273.96445	30806
273.97415	30923
273.98389	30904
273.99359	31111
274.0033	31000
274.01303	30866
274.02274	30867
274.03247	31022
274.04218	30896
274.05191	30982
274.06161	30926
274.07135	30903
274.08105	30964
274.09079	30878
274.10049	30850
274.1102	30641
274.11993	30496
274.12964	30524
274.13937	30662
274.14908	30832
274.15878	30965
274.16852	30861
274.17822	30773
274.18796	30665
274.19766	30729
274.20737	30930
274.2171	31197
274.22681	31293
274.23651	31334
274.24625	31190
274.25595	31166
274.26569	31183
274.27539	31131
274.2851	31183
274.29483	31318
274.30453	31334
274.31424	31198
274.32397	31079
274.33368	31026
274.34338	30952
274.35309	30849
274.36282	30868
274.37253	30898
274.38223	30968
274.39197	30798
274.40167	30662
274.41138	30802
274.42108	30883
274.43082	30930
274.44052	30946
274.45023	31136
274.45993	31173
274.46967	31119
274.47937	30955
274.48907	31031
274.49878	30990
274.50851	30961
274.51822	30888
274.52792	30739
274.53763	30701
274.54733	30588
274.55707	30340
274.56677	30430
274.57648	30463
274.58618	30405
274.59589	30250
274.60562	30107
274.61533	30150
274.62503	29999
274.63474	29887
274.64444	30004
274.65414	30139
274.66388	30272
274.67358	30260
274.68329	30339
274.69299	30145
274.7027	30013
274.7124	29873
274.72211	29863
274.73181	29970
274.74155	29933
274.75125	29917
274.76096	29791
274.77066	29699
274.78036	29754
274.79007	29707
274.79977	29933
274.80948	30003
274.81918	30206
274.82889	30283
274.83859	30097
274.8483	29930
274.85803	30022
274.86774	30012
274.87744	30240
274.88715	30403
274.89685	30509
274.90656	30398
274.91626	30473
274.92596	30664
274.93567	30713
274.94537	30568
274.95508	30410
274.96478	30534
274.97449	30457
274.98419	30385
274.9939	30289
275.0036	30296
275.01331	30247
275.02301	30106
275.03271	30050
275.04242	29964
275.05209	30095
275.0618	30319
275.0715	30248
275.08121	30161
275.09091	30120
275.10062	30304
275.11032	30455
275.12003	30470
275.12973	30494
275.13943	30517
275.14914	30494
275.15884	30454
275.16855	30270
275.17822	30451
275.18793	30482
275.19763	30406
275.20734	30261
275.21704	30207
275.22675	30340
275.23645	30215
275.24615	30308
275.25583	30463
275.26553	30650
275.27524	30602
275.28494	30494
275.29465	30415
275.30435	30495
275.31403	30514
275.32373	30635
275.33344	30585
275.34314	30774
275.35284	30766
275.36252	30587
275.37222	30527
275.38193	30502
275.39163	30597
275.40134	30632
275.41101	30645
275.42072	30847
275.43042	30817
275.44012	30572
275.4498	30436
275.4595	30765
275.46921	30920
275.47891	31032
275.48859	30946
275.49829	31041
275.508	30955
275.51767	30968
275.52737	30904
275.53708	30934
275.54678	31110
275.55646	31273
275.56616	31133
275.57587	31211
275.58554	31454
275.59525	31435
275.60495	31406
275.61462	31419
275.62433	31316
275.63403	31328
275.64371	31155
275.65341	31257
275.66312	31276
275.67279	31254
275.6825	31110
275.69217	31086
275.70187	31051
275.71158	31055
275.72125	31098
275.73096	31323
275.74066	31330
275.75034	31177
275.76004	31068
275.76971	31198
275.77942	31197
275.78909	31266
275.7988	31373
275.8085	31438
275.81818	31283
275.82788	31078
275.83755	31003
275.84726	30971
275.85693	31062
275.86664	30791
275.87631	30806
275.88602	30967
275.89572	31217
275.9054	31124
275.9151	31156
275.92477	31172
275.93448	31069
275.94415	30983
275.95386	30659
275.96353	30507
275.97324	30486
275.98291	30546
275.99258	30606
276.00229	30756
276.01196	30932
276.02167	30772
276.03134	30634
276.04105	30628
276.05072	30529
276.06042	30594
276.0701	30768
276.0798	31029
276.08948	31179
276.09915	31045
276.10886	31048
276.11853	31228
276.12823	31306
276.13791	31292
276.14758	31303
276.15729	31319
276.16696	31203
276.17667	31101
276.18634	30957
276.19601	31163
276.20572	31131
276.21539	31162
276.22507	31095
276.23477	31437
276.24445	31479
276.25412	31459
276.26382	31284
276.2735	31289
276.28317	31347
276.29288	31595
276.30255	31544
276.31223	31687
276.32193	31878
276.3316	31732
276.34128	31527
276.35098	31434
276.36066	31455
276.37033	31287
276.38	31530
276.38971	31731
276.39938	31750
276.40906	31525
276.41873	31444
276.42844	31537
276.43811	31577
276.44778	31549
276.45746	31421
276.46716	31330
276.47684	31379
276.48651	31208
276.49619	31260
276.50586	31197
276.51556	31382
276.52524	31371
276.53491	31381
276.54459	31552
276.55426	31639
276.56396	31475
276.57364	31448
276.58331	31172
276.59299	31068
276.60266	31146
276.61234	31062
276.62204	31067
276.63171	31140
276.64139	31067
276.65106	30998
276.66074	31178
276.67041	31221
276.68008	31348
276.68976	31234
276.69946	31147
276.70914	31003
276.71881	31011
276.72849	31080
276.73816	31168
276.74783	31110
276.75751	30983
276.76718	30953
276.77686	31160
276.78653	31300
276.7962	31417
276.80588	31323
276.81558	31204
276.82526	31216
276.83493	31339
276.8446	31430
276.85428	31493
276.86395	31494
276.87363	31494
276.8833	31523
276.89297	31523
276.90265	31494
276.91232	31498
276.922	31404
276.93167	31543
276.94135	31558
276.95102	31557
276.96069	31564
276.97037	31645
276.98004	31634
276.98972	31658
276.99936	31479
277.00903	31354
277.01871	31301
277.02838	31175
277.03806	31207
277.04773	31236
277.0574	31260
277.06708	31355
277.07675	31459
277.08643	31626
277.0961	31562
277.10577	31557
277.11545	31686
277.12509	31764
277.13477	31848
277.14444	31716
277.15411	31781
277.16379	31777
277.17346	31774
277.18314	31632
277.19281	31725
277.20245	31796
277.21213	31686
277.2218	31647
277.23148	31395
277.24115	31427
277.25082	31380
277.26047	31275
277.27014	31269
277.27982	31430
277.28949	31657
277.29916	31639
277.30881	31682
277.31848	31739
277.32816	31635
277.33783	31608
277.34747	31505
277.35715	31576
277.36682	31581
277.3765	31604
277.38614	31561
277.39581	31344
277.40549	31176
277.41516	31238
277.4248	31568
277.43448	31770
277.44415	31725
277.45383	31818
277.46347	31766
277.47314	31628
277.48282	31441
277.49246	31488
277.50214	31648
277.51181	31943
277.52145	32044
277.53113	31915
277.5408	31867
277.55045	31950
277.56012	32087
277.56979	32007
277.57944	32107
277.58911	32063
277.59879	32039
277.60843	31878
277.6181	31864
277.62778	31915
277.63742	31774
277.64709	31793
277.65674	31678
277.66641	31557
277.67609	31618
277.68573	31632
277.6954	31762
277.70505	31920
277.71472	31892
277.7244	31780
277.73404	31901
277.74371	32168
277.75336	32132
277.76303	32080
277.77267	32036
277.78235	32010
277.79199	31942
277.80167	31693
277.81134	31687
277.82098	31849
277.83066	31735
277.8403	31504
277.84998	31459
277.85962	31677
277.86929	31627
277.87894	31723
277.88861	31708
277.89825	31726
277.90793	31627
277.91757	31384
277.92722	31319
277.93689	31459
277.94653	31524
277.95621	31610
277.96585	31621
277.97552	31783
277.98517	31558
277.99484	31583
278.00449	31511
278.01413	31556
278.0238	31453
278.03345	31620
278.04312	31871
278.05276	31845
278.06241	31819
278.07208	31694
278.08173	31878
278.0914	32174
278.10104	32167
278.11069	32186
278.12036	32229
278.13	32176
278.13965	32020
278.14932	31969
278.15897	31968
278.16861	32165
278.17828	32364
278.18793	32249
278.19757	32303
278.20724	32573
278.21689	32748
278.22653	32824
278.23621	32773
278.24585	32715
278.25549	32670
278.26517	32428
278.27481	32526
278.28445	32515
278.2941	32569
278.30377	32414
278.31342	32268
278.32306	32355
278.3327	32326
278.34238	32400
278.35202	32459
278.36166	32550
278.37131	32449
278.38098	32323
278.39063	32377
278.40027	32498
278.40991	32552
278.41956	32487
278.42923	32556
278.43887	32497
278.44852	32253
278.45816	32211
278.4678	32164
278.47748	32211
278.48712	32266
278.49677	32183
278.50641	32280
278.51605	32317
278.5257	32437
278.53537	32584
278.54501	32551
278.55466	32541
278.5643	32427
278.57394	32517
278.58359	32241
278.59323	32092
278.60287	31914
278.61252	31814
278.62219	32000
278.63184	32304
278.64148	32254
278.65112	31988
278.66077	31790
278.67041	31819
278.68005	31817
278.6897	31978
278.69934	32276
278.70898	32577
278.71863	32648
278.72827	32498
278.73792	32459
278.74756	32608
278.7572	32429
278.76685	32567
278.77649	32496
278.78613	32636
278.79578	32513
278.80542	32407
278.81506	32285
278.82471	32141
278.83435	32091
278.84399	32043
278.85364	32297
278.86328	32603
278.87292	32644
278.88257	32655
278.89221	32468
278.90186	32403
278.9115	32523
278.92114	32801
278.93079	32882
278.94043	33147
278.95007	33181
278.95972	33055
278.96936	32944
278.979	32959
278.98862	32905
278.99826	32963
279.0079	33031
279.01755	33094
279.02719	33075
279.03683	32882
279.04648	32867
279.05612	32776
279.06573	32768
279.07538	32609
279.08502	32682
279.09467	32690
279.10431	32641
279.11395	32462
279.1236	32555
279.13321	32548
279.14285	32697
279.1525	32737
279.16214	32929
279.17178	33011
279.1814	32858
279.19104	32917
279.20068	32815
279.21033	32487
279.21997	32290
279.22958	32011
279.23923	32023
279.24887	31979
279.25851	31848
279.26813	31564
279.27777	31559
279.28741	31574
279.29706	31653
279.30667	31634
279.31631	31438
279.32596	31461
279.33557	31438
279.34521	31597
279.35486	31806
279.3645	32063
279.37411	32197
279.38376	32135
279.3934	31918
279.40302	31926
279.41266	31820
279.4223	31882
279.43192	31876
279.44156	31952
279.4512	31919
279.46082	31919
279.47046	31704
279.48007	31549
279.48972	31604
279.49936	31586
279.50897	31811
279.51862	32037
279.52826	32159
279.53787	31995
279.54752	31813
279.55713	31821
279.56677	31795
279.57642	31840
279.58603	31818
279.59567	31932
279.60529	32195
279.61493	32144
279.62454	32055
279.63419	31952
279.6438	32000
279.65344	32061
279.66309	32024
279.6727	32016
279.68234	31979
279.69196	31749
279.7016	31760
279.71121	31819
279.72086	31793
279.73047	31939
279.74011	32047
279.74973	32188
279.75937	32133
279.76898	31985
279.77863	31893
279.78824	31985
279.79788	32169
279.8075	32201
279.81711	32350
279.82675	32572
279.83636	32758
279.84601	32635
279.85562	32679
279.86526	32604
279.87488	32469
279.88449	32316
279.89413	32297
279.90375	32508
279.91339	32792
279.923	32924
279.93262	33046
279.94226	33002
279.95187	32949
279.96152	32848
279.97113	32822
279.98074	32921
279.99039	32912
280	32936
280.00961	33001
280.01926	32854
280.02887	32695
280.03848	32692
280.04813	32889
280.05774	33222
280.06735	33256
280.077	33258
280.08661	33228
280.09622	33214
280.10587	33179
280.11548	33359
280.12509	33479
280.1347	33627
280.14435	33690
280.15396	33802
280.16357	33787
280.17319	33815
280.18283	33680
280.19244	33598
280.20206	33600
280.21167	33655
280.22131	33609
280.23093	33489
280.24054	33559
280.25015	33629
280.2598	33589
280.26941	33567
280.27902	33206
280.28864	33017
280.29825	33174
280.30789	33231
280.3175	33514
280.32712	33487
280.33673	33353
280.34634	33222
280.35596	33388
280.3656	33620
280.37521	33396
280.38483	33529
280.39444	33607
280.40405	33607
280.41367	33567
280.42328	33581
280.43289	33399
280.44254	33470
280.45215	33160
280.46176	33153
280.47137	33279
280.48099	33263
280.4906	33208
280.50021	33108
280.50983	33014
280.51944	32952
280.52905	32737
280.53867	32567
280.54828	32534
280.55789	32581
280.56754	32646
280.57715	32595
280.58676	32629
280.59637	32630
280.60599	32651
280.6156	32624
280.62521	32573
280.63483	32603
280.64444	32561
280.65405	32662
280.66367	32808
280.67328	32833
280.68289	32783
280.6925	32688
280.70212	32862
280.7117	33127
280.72131	33110
280.73093	33101
280.74054	33146
280.75015	32987
280.75977	32861
280.76938	32794
280.77899	32848
280.7886	33071
280.79822	33231
280.80783	33240
280.81744	33373
280.82706	33625
280.83667	33891
280.84625	33800
280.85587	33628
280.86548	33646
280.87509	33542
280.8847	33590
280.89432	33712
280.90393	33804
280.91351	33794
280.92313	33809
280.93274	33823
280.94235	33901
280.95197	33850
280.96158	33687
280.97116	33600
280.98077	33660
280.99039	33632
281	33245
281.00961	33400
281.0192	33818
281.02881	33635
281.03842	33703
281.04803	33781
281.05765	33837
281.06723	33678
281.07684	33411
281.08646	33339
281.09607	33373
281.10565	33292
281.11526	33358
281.12488	33440
281.13449	33659
281.14407	33737
281.15369	33820
281.1633	33904
281.17288	33756
281.1825	33633
281.19211	33490
281.20169	33354
281.2113	33295
281.22092	33351
281.23053	33314
281.24011	33503
281.24973	33716
281.25934	33450
281.26892	33509
281.27853	33278
281.28812	33287
281.29773	33411
281.30734	33560
281.31693	33855
281.32654	34162
281.33615	34199
281.34573	34082
281.35535	34148
281.36493	34204
281.37454	34324
281.38416	34266
281.39374	34228
281.40335	34312
281.41293	34216
281.42255	34104
281.43213	33891
281.44174	33907
281.45135	33842
281.46094	33851
281.47055	34053
281.48013	34227
281.48975	34376
281.49933	34215
281.50894	34176
281.51852	34163
281.52814	34371
281.53772	34548
281.54733	34636
281.55692	34794
281.56653	34966
281.57611	34817
281.58572	34685
281.59531	34758
281.60492	34594
281.6145	34520
281.62411	34652
281.6337	34703
281.64328	34578
281.65289	34452
281.66248	34674
281.67209	34588
281.68167	34740
281.69128	34412
281.70087	34395
281.71045	34519
281.72006	34438
281.72964	34296
281.73926	34037
281.74884	33998
281.75842	34179
281.76804	34358
281.77762	34375
281.7872	34720
281.79681	34637
281.8064	34595
281.81598	34707
281.82559	34355
281.83517	34527
281.84476	34365
281.85437	34190
281.86395	34315
281.87354	33951
281.88315	33939
281.89273	34069
281.90231	34136
281.91193	34064
281.92151	33927
281.93109	33971
281.9407	33926
281.95029	33873
281.95987	33989
281.96945	34178
281.97906	34468
281.98865	34480
281.99823	34508
282.00781	34584
282.01743	34777
282.02701	34571
282.03659	34503
282.04617	34463
282.05576	34489
282.06537	34345
282.07495	34336
282.08453	34282
282.09412	34043
282.1037	34185
282.11331	34208
282.12289	34465
282.13248	34674
282.14206	34710
282.15164	34674
282.16122	34614
282.17084	34557
282.18042	34573
282.19	34838
282.19958	34897
282.20917	35235
282.21875	35197
282.22833	35204
282.23792	35127
282.24753	35230
282.25711	35124
282.26669	35203
282.27628	35173
282.28586	35133
282.29544	34970
282.30502	35153
282.31461	34983
282.32419	35125
282.33377	34972
282.34335	34787
282.35294	34779
282.36252	34543
282.3721	34603
282.38168	34663
282.39127	34788
282.40085	35082
282.41043	34995
282.42001	35274
282.4296	35246
282.43918	35458
282.44876	35652
282.45834	35377
282.46793	35542
282.47751	35422
282.48709	35508
282.49667	35521
282.50626	35441
282.51584	35419
282.52542	35391
282.535	35157
282.54459	35465
282.55417	35334
282.56375	35240
282.57333	35025
282.58292	34951
282.5925	35017
282.60208	34894
282.61163	34995
282.62122	34739
282.6308	34530
282.64038	34497
282.64996	34367
282.65955	34713
282.66913	34924
282.67871	34984
282.68826	35087
282.69785	35029
282.70743	34812
282.71701	34767
282.72659	34711
282.73618	34994
282.74573	35425
282.75531	35367
282.76489	35422
282.77448	35335
282.78406	35689
282.79361	35558
282.80319	35546
282.81277	35580
282.82236	35700
282.83194	35667
282.84149	35329
282.85107	35599
282.86066	35511
282.87024	35529
282.87979	35501
282.88937	35473
282.89896	35185
282.90854	35109
282.91809	35100
282.92767	35375
282.93726	35229
282.94681	35066
282.95639	35065
282.96597	35254
282.97552	35331
282.98511	35320
282.99469	35217
283.00424	35294
283.01382	35233
283.02341	35117
283.03296	35046
283.04254	35128
283.05212	35192
283.06168	35014
283.07126	34791
283.08084	34957
283.09039	35121
283.09998	35229
283.10956	35291
283.11911	35252
283.12869	35161
283.13824	34843
283.14783	34691
283.15741	34467
283.16696	34448
283.17654	34877
283.1861	34896
283.19568	35095
283.20523	34914
283.21481	34839
283.22437	34617
283.23395	34694
283.24353	34470
283.25308	34730
283.26266	34941
283.27222	35173
283.2818	35209
283.29135	34923
283.30093	35230
283.31049	35003
283.32007	35134
283.32962	35083
283.3392	35213
283.34875	35344
283.35834	35232
283.36789	34977
283.37744	34912
283.38702	34898
283.39658	35141
283.40616	35046
283.41571	35116
283.42529	35412
283.43484	35656
283.44443	35731
283.45398	35630
283.46353	35441
283.47311	35646
283.48267	35578
283.49225	35488
283.5018	35832
283.51135	35855
283.52094	35748
283.53049	35507
283.54004	35455
283.54962	35179
283.55917	35342
283.56873	35510
283.57831	35620
283.58786	35638
283.59744	35303
283.60699	35345
283.61655	35350
283.6261	35267
283.63568	35422
283.64523	35363
283.65479	35492
283.66437	35293
283.67392	35267
283.68347	35027
283.69305	35190
283.70261	35290
283.71216	35438
283.72171	35384
283.73129	35547
283.74084	35612
283.7504	35751
283.75995	35507
283.76953	35579
283.77908	35266
283.78864	35099
283.79819	35016
283.80774	34816
283.81732	34767
283.82687	34683
283.83643	34579
283.84598	34889
283.85553	34943
283.86511	34828
283.87466	34598
283.88422	34636
283.89377	34675
283.90332	34851
283.91287	35209
283.92245	35680
283.93201	35595
283.94156	35515
283.95111	35490
283.96066	35401
283.97021	35321
283.97977	35481
283.98932	35513
283.99887	35515
284.00845	35547
284.01801	35245
284.02756	35281
284.03711	35047
284.04666	34866
284.05621	35136
284.06577	35203
284.07532	35540
284.08487	35728
284.09442	35645
284.10397	35559
284.11353	35394
284.12308	35398
284.13263	35704
284.14218	35821
284.15173	36054
284.16129	36463
284.17084	36099
284.18039	36000
284.18994	36074
284.19949	35925
284.20905	36025
284.2186	35992
284.22815	36256
284.2377	36148
284.24725	36113
284.25681	35929
284.26636	35764
284.27591	35820
284.28546	35817
284.29501	35707
284.30457	35484
284.31412	35585
284.32367	35426
284.33319	35622
284.34274	35547
284.35229	35765
284.36185	35750
284.3714	36003
284.38095	36311
284.3905	36100
284.40005	36039
284.40961	36120
284.41913	36048
284.42868	35803
284.43823	35598
284.44778	35475
284.45734	35365
284.46689	35281
284.47641	35170
284.48596	35053
284.49551	35327
284.50507	35160
284.51462	35650
284.52414	35306
284.53369	35505
284.54324	35347
284.5528	35284
284.56235	35537
284.57187	35921
284.58142	36006
284.59097	36253
284.60052	35990
284.61005	36050
284.6196	36117
284.62915	36083
284.6387	35894
284.64822	36039
284.65778	36058
284.66733	35880
284.67685	35938
284.6864	35599
284.69595	35340
284.70547	35458
284.71503	35724
284.72458	36143
284.7341	36340
284.74365	36381
284.7532	36099
284.76273	36091
284.77228	36138
284.78183	36162
284.79135	36459
284.8009	36755
284.81046	36695
284.81998	36828
284.82953	36823
284.83905	36687
284.8486	36803
284.85815	36726
284.86768	36935
284.87723	36894
284.88675	36765
284.8963	36797
284.90585	36577
284.91537	36578
284.92493	36730
284.93445	36527
284.944	36336
284.95352	36086
284.96307	36220
284.9726	36179
284.98215	36231
284.99167	36600
285.00122	36517
285.01074	36670
285.02029	36933
285.02982	37089
285.03937	37019
285.04889	36965
285.05844	37033
285.06796	36918
285.07751	37024
285.08704	36877
285.09659	36661
285.10611	36923
285.11566	36640
285.12518	36609
285.13474	36567
285.14426	36870
285.15378	36677
285.16333	36411
285.17285	36012
285.1824	36160
285.19193	36036
285.20145	35961
285.211	36106
285.22052	35944
285.23007	35922
285.23959	35903
285.24911	35619
285.25867	35846
285.26819	36209
285.27771	36104
285.28726	36266
285.29678	36102
285.3063	36159
285.31586	36018
285.32538	36107
285.3349	36012
285.34445	36315
285.35397	36531
285.36349	36390
285.37305	36585
285.38257	36816
285.39209	36803
285.40161	36561
285.41116	36685
285.42068	36599
285.43021	36358
285.43976	36541
285.44928	36298
285.4588	36711
285.46832	36507
285.47784	36529
285.4874	36428
285.49692	36226
285.50644	36369
285.51596	36406
285.52551	36298
285.53503	36346
285.54456	36341
285.55408	36319
285.5636	36615
285.57312	36742
285.58267	36728
285.59219	36797
285.60172	36788
285.61124	36542
285.62076	36286
285.63028	36408
285.63983	36271
285.64935	36679
285.65887	36463
285.6684	36358
285.67792	36372
285.68744	36597
285.69696	36746
285.70648	36698
285.716	36908
285.72556	36849
285.73508	36573
285.7446	36438
285.75412	36273
285.76364	36325
285.77316	36401
285.78268	36642
285.79221	36412
285.80173	36668
285.81125	36471
285.82077	36314
285.83029	36363
285.83981	36324
285.84933	36385
285.85886	36670
285.86838	36900
285.8779	36818
285.88742	37021
285.89694	36640
285.90646	36770
285.91599	36871
285.92551	37062
285.93503	37079
285.94455	37115
285.95407	37042
285.96359	36727
285.97311	36722
285.98264	36800
285.99216	36912
286.00168	36947
286.01117	37141
286.02069	37874
286.03021	37677
286.03973	37945
286.04926	37535
286.05878	37520
286.0683	37569
286.07782	37667
286.08734	37674
286.09683	38041
286.10635	38016
286.11588	37905
286.1254	37621
286.13492	37602
286.14444	37752
286.15393	37653
286.16345	37827
286.17297	38118
286.1825	38107
286.19202	37779
286.20154	37760
286.21103	37462
286.22055	37459
286.23007	37736
286.23959	37595
286.24908	37732
286.25861	37604
286.26813	37660
286.27765	37278
286.28714	37515
286.29666	37591
286.30618	37788
286.3157	37884
286.3252	37960
286.33472	38167
286.34424	37853
286.35376	38058
286.36325	37660
286.37277	37552
286.38229	37434
286.39178	37515
286.40131	37292
286.41083	37339
286.42032	37249
286.42984	37228
286.43936	37821
286.44885	37514
286.45837	37363
286.4679	37493
286.47739	37549
286.48691	37510
286.4964	37916
286.50592	37981
286.51544	38419
286.52493	38573
286.53445	38378
286.54395	38340
286.55347	38549
286.56299	38316
286.57248	38342
286.582	38411
286.59149	38424
286.60101	38342
286.6105	38441
286.62003	37938
286.62955	38003
286.63904	38094
286.64856	37841
286.65805	38277
286.66757	38402
286.67706	38561
286.68658	38498
286.69608	38458
286.7056	38417
286.71509	38451
286.72461	38916
286.7341	38788
286.74362	39102
286.75311	39160
286.76263	39097
286.77213	39180
286.78162	39005
286.79114	39229
286.80063	38847
286.81015	38904
286.81964	38846
286.82916	39120
286.83865	38841
286.84814	38819
286.85767	38979
286.86716	38748
286.87668	38916
286.88617	38522
286.89566	38508
286.90518	38437
286.91467	38501
286.92419	38353
286.93369	38590
286.94318	38555
286.9527	38774
286.96219	38943
286.97168	39048
286.9812	39183
286.99069	39056
287.00018	38780
287.0097	39065
287.0192	38652
287.02869	38925
287.03818	38638
287.0477	38782
287.05719	38579
287.06668	38591
287.0762	38366
287.08569	38491
287.09518	38470
287.10468	38212
287.1142	38386
287.12369	38099
287.13318	38047
287.14267	37883
287.15219	38080
287.16168	38500
287.17117	38179
287.18066	38528
287.19016	38303
287.19968	38385
287.20917	38554
287.21866	38104
287.22815	38267
287.23764	38171
287.24716	38379
287.25665	37973
287.26614	37962
287.27563	37752
287.28513	37937
287.29462	37773
287.30411	38032
287.31363	38454
287.32312	38565
287.33261	38468
287.3421	38342
287.35159	38128
287.36108	38345
287.37057	38262
287.38007	38562
287.38956	38601
287.39905	38897
287.40854	38702
287.41806	38854
287.42755	38579
287.43704	38815
287.44653	38787
287.45602	38943
287.46552	38786
287.47501	38763
287.4845	38641
287.49399	38544
287.50348	38831
287.51297	38785
287.52246	38468
287.53195	38330
287.54144	38359
287.55093	38125
287.56042	38351
287.56992	38570
287.57941	38514
287.5889	38789
287.59839	38748
287.60788	38924
287.61737	38617
287.62683	38752
287.63632	38628
287.64581	38992
287.6553	39001
287.66479	39101
287.67429	38995
287.68378	39023
287.69327	38940
287.70276	38651
287.71225	38911
287.72174	38839
287.7312	38765
287.74069	38874
287.75018	38771
287.75967	38419
287.76917	38468
287.77866	38495
287.78812	38297
287.79761	38356
287.8071	38065
287.81659	38489
287.82608	38177
287.83557	38183
287.84503	38371
287.85452	38577
287.86401	38631
287.8735	38508
287.883	38559
287.89246	38324
287.90195	38344
287.91144	38362
287.92093	38336
287.93039	38560
287.93988	38833
287.94937	38517
287.95886	38744
287.96832	39003
287.97781	38973
287.9873	38973
287.99677	38924
288.00626	39020
288.01575	38745
288.02524	38970
288.0347	39012
288.04419	39243
288.05368	38982
288.06314	39253
288.07263	38868
288.08212	39100
288.09158	39028
288.10107	38940
288.11053	39072
288.12003	39166
288.12952	39065
288.13898	39093
288.14847	38915
288.15796	39251
288.16742	39166
288.17691	39087
288.18637	39116
288.19586	38961
288.20535	38996
288.21481	38829
288.2243	38947
288.23376	38739
288.24326	38676
288.25272	38704
288.26221	38690
288.27167	38640
288.28116	38735
288.29065	38768
288.30011	38971
288.3096	38441
288.31906	38361
288.32855	38301
288.33801	38016
288.3475	38313
288.35696	38271
288.36646	38083
288.37592	38323
288.38538	38320
288.39487	38360
288.40433	38226
288.41382	37991
288.42328	38193
288.43277	38384
288.44223	38311
288.45172	38825
288.46118	38651
288.47064	38639
288.48013	38847
288.48959	38675
288.49908	38842
288.50854	38970
288.51801	38815
288.5275	38822
288.53696	38796
288.54645	38628
288.55591	38665
288.56537	38607
288.57486	38598
288.58432	38644
288.59378	38719
288.60327	39093
288.61273	39022
288.62219	39145
288.63168	38828
288.64114	39108
288.6506	39244
288.6601	39150
288.66956	39575
288.67902	39748
288.68848	39833
288.69797	39736
288.70743	39799
288.71689	39586
288.72635	39522
288.73584	39496
288.7453	39497
288.75476	39600
288.76422	39443
288.77371	39349
288.78317	39430
288.79263	39204
288.80209	39448
288.81155	39288
288.82104	39561
288.83051	39192
288.83997	39163
288.84943	39119
288.85889	39143
288.86838	39032
288.87784	38926
288.8873	39025
288.89676	39203
288.90622	39315
288.91568	39230
288.92514	39541
288.93463	39253
288.94409	39078
288.95355	39039
288.96301	39091
288.97247	38944
288.98193	39249
288.99139	38837
289.00085	39078
289.01031	38999
289.01978	39100
289.02927	38934
289.03873	39060
289.04819	38876
289.05765	39192
289.06711	38889
289.07657	39171
289.08603	39403
289.09549	39233
289.10495	39753
289.11441	39782
289.12387	39674
289.13333	39802
289.14279	40008
289.15225	39857
289.16171	39683
289.17117	39383
289.18063	39506
289.19009	39678
289.19955	39557
289.20901	39426
289.21848	39591
289.22794	39686
289.2374	39644
289.24683	39872
289.25629	39886
289.26575	39984
289.27521	39919
289.28467	39775
289.29413	40171
289.30359	40202
289.31305	40553
289.32251	40519
289.33197	40774
289.3414	40912
289.35086	40547
289.36032	40455
289.36978	40592
289.37924	40459
289.3887	40678
289.39816	40376
289.40759	40323
289.41705	40642
289.42651	40431
289.43597	40443
289.44543	40411
289.45486	40529
289.46432	40264
289.47379	39922
289.48325	40014
289.49271	40091
289.50214	39868
289.5116	39889
289.52106	40061
289.53052	40308
289.53995	40197
289.54941	40200
289.55887	40289
289.56833	40496
289.57776	40114
289.58722	40678
289.59668	40131
289.60611	40554
289.61557	40210
289.62503	40379
289.63449	40162
289.64392	40017
289.65338	40031
289.66284	40090
289.67227	39802
289.68173	40056
289.69119	39808
289.70062	39761
289.71008	39678
289.71951	39466
289.72897	39492
289.73843	39666
289.74786	39645
289.75732	39672
289.76678	39574
289.77621	39730
289.78568	39702
289.7951	39703
289.80457	39631
289.814	39759
289.82346	39656
289.83292	39787
289.84235	39653
289.85181	39375
289.86124	39374
289.8707	39594
289.88013	39736
289.88959	39787
289.89902	39928
289.90848	40197
289.91791	40262
289.92737	39991
289.9368	40225
289.94626	39983
289.95569	40161
289.96515	40496
289.97458	40485
289.98404	40329
289.99347	40721
290.00293	40551
290.01236	40767
290.02182	40855
290.03125	40586
290.04068	40707
290.05014	40767
290.05957	40519
290.06903	40611
290.07846	40262
290.08792	40825
290.09735	40799
290.10678	40311
290.11624	40512
290.12567	40333
290.1351	40413
290.14456	40522
290.15399	40831
290.16345	40788
290.17288	40738
290.18231	40636
290.19177	40817
290.2012	41033
290.21063	40978
290.22009	40786
290.22952	40997
290.23895	40912
290.24838	40925
290.25784	40842
290.26727	40565
290.2767	40397
290.28616	40670
290.29559	40855
290.30502	40611
290.31445	40723
290.32391	40572
290.33334	40137
290.34277	40325
290.3522	40043
290.36166	40277
290.37109	40097
290.38052	40420
290.38995	40212
290.39938	40334
290.40884	40353
290.41827	40302
290.4277	40479
290.43713	40329
290.44656	40636
290.45602	40248
290.46545	40494
290.47488	40329
290.48431	40237
290.49374	40170
290.50317	40311
290.5126	40060
290.52206	40275
290.53149	40258
290.54092	40552
290.55035	40602
290.55978	40520
290.56921	40471
290.57864	40539
290.58807	40305
290.5975	40599
290.60693	40373
290.61636	40565
290.62579	40698
290.63525	40189
290.64468	40578
290.65411	40122
290.66354	40459
290.67297	40492
290.6824	40369
290.69183	40466
290.70126	40529
290.71069	40358
290.72012	40447
290.72955	40170
290.73898	39326
290.74841	37363
