# Columns are Wavelength, tx_c, tx_t, tx_l, tx_r, tx_b, oob_c
268.95688 0.00000 0.00213 0.00235 -0.00043 0.00256 0.00086
268.96664 0.00358 0.00134 0.00089 0.00112 0.00402 0.00085
268.97644 0.00267 0.00178 0.00000 -0.00022 0.00178 0.00096
268.98621 0.00267 0.00267 0.00356 0.00245 0.00445 0.00083
268.99598 0.00133 0.00265 0.00265 0.00111 0.00221 0.00083
269.00578 -0.00155 -0.00133 0.00067 -0.00022 -0.00244 0.00084
269.01555 0.00022 0.00179 0.00000 0.00135 -0.00067 0.00086
269.02532 0.00045 -0.00112 -0.00022 -0.00112 -0.00067 0.00088
269.03512 -0.00044 0.00022 -0.00133 0.00022 -0.00221 0.00083
269.04489 0.00022 0.00155 -0.00111 0.00243 -0.00133 0.00085
269.05465 0.00356 0.00022 -0.00044 0.00111 0.00000 0.00084
269.06446 0.00022 -0.00022 -0.00022 0.00179 -0.00402 0.00087
269.07423 0.00223 0.00045 0.00022 -0.00045 0.00246 0.00087
269.08399 0.00134 0.00089 0.00156 0.00045 0.00134 0.00084
269.09380 0.00224 0.00224 0.00112 0.00201 0.00112 0.00103
269.10356 0.00360 -0.00067 0.00225 0.00225 0.00112 0.00084
269.11333 0.00045 -0.00179 -0.00022 0.00290 0.00134 0.00085
269.12313 0.00154 0.00287 -0.00044 0.00529 0.00154 0.00086
269.13290 0.00242 0.00176 0.00352 0.00286 0.00066 0.00083
269.14267 -0.00310 0.00089 -0.00111 -0.00022 -0.00399 0.00085
269.15244 0.00246 0.00425 0.00134 0.00313 0.00045 0.00080
269.16224 0.00202 0.00292 0.00314 0.00247 0.00224 0.00075
269.17200 0.00135 -0.00067 0.00180 -0.00022 0.00112 0.00086
269.18178 0.00361 0.00068 0.00068 0.00000 0.00113 0.00089
269.19157 0.00363 0.00068 0.00000 0.00522 0.00182 0.00088
269.20134 0.00000 0.00000 0.00068 0.00023 -0.00137 0.00087
269.21112 -0.00045 0.00023 -0.00272 0.00159 0.00181 0.00087
269.22088 0.00181 -0.00272 0.00023 0.00023 0.00023 0.00086
269.23068 0.00251 -0.00023 -0.00091 0.00159 0.00114 0.00088
269.24045 0.00137 0.00364 0.00342 0.00410 0.00342 0.00087
269.25022 0.00181 0.00023 0.00045 -0.00045 -0.00091 0.00089
269.25998 0.00318 -0.00091 -0.00136 -0.00023 -0.00091 0.00087
269.26976 -0.00091 -0.00273 -0.00318 0.00000 -0.00250 0.00091
269.27956 0.00159 0.00091 -0.00204 -0.00113 -0.00159 0.00089
269.28932 0.00182 0.00000 -0.00250 -0.00068 0.00136 0.00090
269.29910 0.00069 0.00114 0.00000 0.00229 -0.00092 0.00094
269.30886 0.00344 0.00115 0.00321 0.00206 0.00458 0.00088
269.31866 0.00344 0.00298 0.00412 0.00229 0.00344 0.00091
269.32844 0.00366 -0.00023 0.00274 0.00252 0.00000 0.00091
269.33820 0.00435 -0.00023 0.00298 -0.00206 0.00114 0.00091
269.34797 0.00115 0.00206 0.00023 0.00252 0.00321 0.00090
269.35774 0.00342 0.00205 0.00183 0.00160 0.00068 0.00091
269.36754 0.00090 0.00226 0.00000 0.00000 0.00158 0.00090
269.37730 0.00428 0.00158 0.00225 0.00270 0.00293 0.00092
269.38708 0.00317 0.00113 0.00091 -0.00204 -0.00023 0.00087
269.39685 -0.00114 0.00000 0.00000 -0.00091 -0.00227 0.00087
269.40661 0.00114 0.00023 0.00046 -0.00068 0.00274 0.00087
269.41639 -0.00091 0.00023 0.00114 0.00114 0.00068 0.00087
269.42618 0.00364 0.00454 0.00159 0.00159 0.00318 0.00090
269.43595 -0.00113 -0.00158 -0.00045 -0.00045 -0.00023 0.00089
269.44572 0.00269 0.00090 0.00000 0.00045 -0.00022 0.00087
269.45549 0.00112 0.00045 0.00156 0.00045 0.00268 0.00088
269.46526 0.00381 0.00291 0.00291 0.00448 0.00336 0.00086
269.47503 0.00247 0.00314 0.00135 0.00157 0.00045 0.00089
269.48480 0.00113 -0.00113 0.00045 -0.00023 -0.00045 0.00089
269.49456 -0.00113 -0.00023 0.00180 -0.00113 -0.00180 0.00089
269.50437 0.00045 0.00270 0.00045 0.00202 0.00045 0.00086
269.51413 0.00180 0.00090 0.00022 -0.00022 0.00090 0.00088
269.52390 0.00403 0.00224 0.00336 0.00537 0.00291 0.00086
269.53367 0.00045 0.00134 -0.00067 0.00000 -0.00112 0.00087
269.54344 -0.00045 0.00067 0.00247 0.00090 0.00381 0.00088
269.55321 0.00180 0.00202 -0.00157 -0.00022 0.00202 0.00089
269.56298 0.00135 0.00337 0.00135 0.00067 0.00292 0.00087
269.57275 0.00180 0.00022 0.00135 0.00157 0.00135 0.00089
269.58251 0.00656 0.00543 0.00521 0.00249 0.00498 0.00088
269.59229 0.00317 0.00475 0.00204 0.00136 0.00475 0.00091
269.60208 0.00339 0.00091 0.00045 0.00294 0.00158 0.00096
269.61185 -0.00023 0.00023 -0.00023 0.00159 -0.00159 0.00091
269.62163 0.00501 0.00319 0.00296 0.00273 0.00137 0.00093
269.63139 -0.00068 0.00136 0.00205 0.00205 0.00250 0.00091
269.64116 0.00181 0.00317 0.00294 0.00136 0.00136 0.00090
269.65093 0.00363 0.00295 0.00499 0.00204 0.00227 0.00090
269.66070 0.00000 -0.00045 -0.00136 -0.00045 0.00000 0.00091
269.67046 0.00181 0.00135 0.00181 0.00542 0.00181 0.00090
269.68024 0.00180 0.00225 -0.00045 0.00067 0.00090 0.00092
269.69001 -0.00113 0.00203 -0.00090 -0.00203 -0.00316 0.00091
269.69977 0.00519 0.00339 0.00316 0.00158 0.00226 0.00088
269.70955 0.00203 0.00023 0.00045 0.00203 0.00180 0.00091
269.71931 -0.00090 0.00023 0.00068 -0.00068 -0.00045 0.00089
269.72908 0.00137 -0.00023 0.00091 -0.00137 -0.00137 0.00091
269.73885 0.00228 0.00137 0.00023 0.00160 -0.00228 0.00076
269.74862 -0.00091 -0.00068 0.00023 -0.00205 -0.00319 0.00093
269.75838 -0.00068 -0.00182 -0.00114 0.00068 0.00068 0.00092
269.76816 -0.00206 -0.00115 -0.00252 0.00000 -0.00092 0.00094
269.77793 0.00138 0.00184 0.00276 0.00345 0.00368 0.00093
269.78769 0.00046 0.00184 0.00184 0.00207 0.00298 0.00094
269.79747 0.00343 -0.00023 0.00160 0.00183 -0.00183 0.00093
269.80723 0.00298 0.00138 0.00298 -0.00183 0.00298 0.00093
269.81700 -0.00092 -0.00138 0.00138 0.00000 0.00046 0.00095
269.82677 0.00069 0.00183 0.00069 0.00115 0.00092 0.00089
269.83654 0.00069 -0.00023 0.00046 0.00092 -0.00138 0.00093
269.84631 0.00230 0.00299 0.00438 0.00161 0.00069 0.00092
269.85608 0.00023 -0.00299 0.00046 0.00069 0.00069 0.00095
269.86585 0.00092 0.00298 0.00298 0.00046 0.00000 0.00093
269.87561 0.00273 0.00023 0.00410 0.00250 0.00159 0.00088
269.88539 -0.00592 -0.00250 -0.00546 -0.00501 -0.00478 0.00092
269.89515 0.00386 0.00295 0.00136 0.00205 0.00273 0.00094
269.90489 0.00591 0.00250 0.00318 0.00295 0.00318 0.00094
269.91466 0.00114 0.00205 0.00159 0.00114 0.00114 0.00092
269.92443 0.00251 0.00387 0.00251 -0.00023 -0.00023 0.00093
269.93420 0.00274 0.00160 0.00091 0.00228 0.00183 0.00094
269.94397 -0.00045 0.00114 0.00273 0.00045 0.00136 0.00093
269.95374 0.00181 0.00386 0.00159 0.00136 0.00045 0.00091
269.96350 0.00341 0.00250 0.00273 0.00409 0.00341 0.00092
269.97328 0.00502 0.00228 0.00525 0.00091 0.00502 0.00093
269.98304 -0.00114 0.00114 0.00046 0.00160 -0.00023 0.00093
269.99281 -0.00092 0.00138 -0.00046 -0.00115 -0.00092 0.00092
270.00255 0.00413 0.00046 0.00207 0.00459 0.00390 0.00094
270.01232 0.00092 0.00069 0.00000 -0.00069 -0.00092 0.00093
270.02209 -0.00023 0.00068 0.00387 -0.00068 0.00000 0.00094
270.03186 0.00203 0.00270 0.00180 0.00203 0.00090 0.00092
270.04163 0.00022 -0.00270 0.00067 0.00180 0.00202 0.00092
270.05139 0.00292 0.00360 0.00315 0.00382 0.00652 0.00097
270.06117 0.00203 0.00294 0.00474 0.00181 0.00474 0.00098
270.07090 0.00362 0.00113 0.00249 0.00408 0.00226 0.00095
270.08067 0.00135 -0.00045 0.00068 0.00000 0.00135 0.00096
270.09044 0.00158 0.00068 -0.00045 0.00293 0.00068 0.00093
270.10021 0.00179 0.00314 0.00134 0.00224 0.00314 0.00094
270.10998 0.00267 -0.00067 0.00000 0.00378 0.00378 0.00094
270.11975 0.00221 0.00155 -0.00044 0.00044 0.00199 0.00092
270.12949 0.00222 0.00266 0.00200 0.00399 0.00266 0.00094
270.13925 0.00512 0.00401 0.00378 0.00512 0.00334 0.00092
270.14903 0.00533 0.00244 0.00533 0.00621 0.00200 0.00092
270.15879 0.00089 0.00134 0.00156 -0.00022 0.00156 0.00093
270.16856 -0.00111 -0.00223 -0.00379 -0.00089 -0.00201 0.00093
270.17833 -0.00133 -0.00178 -0.00044 -0.00133 0.00067 0.00093
270.18807 -0.00067 0.00111 -0.00089 -0.00022 0.00200 0.00094
270.19784 0.00178 0.00112 0.00245 0.00022 0.00045 0.00090
270.20761 0.00247 0.00179 0.00134 0.00202 0.00291 0.00089
270.21738 0.00000 0.00246 0.00067 -0.00201 0.00134 0.00092
270.22711 0.00134 0.00067 0.00067 0.00269 -0.00067 0.00093
270.23689 0.00157 0.00112 0.00022 0.00045 0.00000 0.00092
270.24665 0.00181 0.00181 0.00271 0.00068 0.00271 0.00095
270.25642 0.00363 0.00318 0.00068 0.00023 0.00386 0.00095
270.26616 0.00385 0.00430 0.00385 0.00362 0.00566 0.00093
270.27593 -0.00068 -0.00203 -0.00136 0.00045 -0.00181 0.00094
270.28569 0.00384 0.00384 0.00406 0.00338 0.00023 0.00094
270.29547 0.00113 0.00181 -0.00045 0.00135 0.00248 0.00095
270.30521 0.00158 0.00158 0.00023 0.00294 0.00204 0.00096
270.31497 -0.00204 -0.00204 -0.00068 -0.00023 0.00159 0.00096
270.32475 0.00090 0.00045 -0.00113 0.00023 0.00023 0.00093
270.33451 0.00246 0.00067 -0.00134 0.00179 0.00269 0.00094
270.34425 -0.00067 -0.00045 -0.00223 0.00112 0.00246 0.00093
270.35402 0.00201 0.00112 0.00469 0.00536 0.00313 0.00094
270.36379 0.00246 0.00424 0.00290 0.00134 0.00246 0.00096
270.37352 -0.00022 0.00067 -0.00067 0.00112 -0.00067 0.00094
270.38330 0.00246 0.00268 0.00067 0.00156 0.00268 0.00092
270.39307 0.00202 -0.00090 0.00022 0.00000 0.00022 0.00090
270.40283 0.00225 0.00158 -0.00023 0.00045 0.00158 0.00096
270.41258 0.00022 -0.00337 -0.00112 0.00270 -0.00022 0.00097
270.42234 0.00022 0.00202 0.00336 0.00157 0.00045 0.00091
270.43212 0.00023 0.00249 0.00249 0.00407 0.00271 0.00095
270.44185 0.00340 0.00227 0.00023 -0.00068 0.00045 0.00097
270.45162 0.00316 0.00158 0.00248 0.00294 0.00452 0.00096
270.46139 0.00361 -0.00045 0.00180 0.00248 0.00271 0.00095
270.47113 0.00180 0.00180 0.00023 0.00135 0.00225 0.00096
270.48089 0.00180 0.00225 0.00113 0.00113 0.00293 0.00095
270.49067 0.00180 -0.00225 -0.00157 -0.00022 -0.00180 0.00093
270.50041 0.00293 0.00158 0.00023 0.00023 -0.00023 0.00096
270.51017 0.00227 0.00521 0.00385 0.00408 0.00499 0.00096
270.51992 0.00363 0.00500 0.00409 0.00432 0.00318 0.00096
270.52968 -0.00113 -0.00090 -0.00294 -0.00203 -0.00090 0.00096
270.53945 0.00337 0.00157 0.00202 0.00270 0.00360 0.00101
270.54919 -0.00179 0.00314 0.00135 0.00000 -0.00247 0.00099
270.55896 0.00224 0.00336 0.00426 0.00224 0.00134 0.00095
270.56872 0.00111 0.00223 -0.00022 -0.00134 0.00134 0.00097
270.57847 0.00022 -0.00134 0.00313 -0.00022 -0.00067 0.00096
270.58823 0.00247 0.00045 0.00135 0.00090 0.00224 0.00097
270.59797 -0.00203 -0.00090 -0.00135 -0.00113 0.00045 0.00097
270.60774 0.00113 0.00045 0.00225 0.00180 0.00135 0.00096
270.61751 0.00045 -0.00113 -0.00180 -0.00090 -0.00135 0.00098
270.62725 0.00202 0.00360 0.00405 0.00292 0.00270 0.00096
270.63702 -0.00090 0.00045 0.00179 0.00157 -0.00022 0.00097
270.64676 0.00246 0.00493 0.00269 0.00381 0.00604 0.00096
270.65652 0.00292 0.00247 0.00202 0.00135 0.00225 0.00098
270.66627 0.00429 0.00226 0.00158 0.00294 0.00294 0.00100
270.67603 0.00113 0.00316 0.00384 0.00113 0.00384 0.00104
270.68577 -0.00156 -0.00089 -0.00112 -0.00201 -0.00112 0.00097
270.69554 0.00311 0.00222 0.00044 0.00222 -0.00022 0.00095
270.70531 0.00178 0.00356 0.00111 0.00334 0.00511 0.00099
270.71504 -0.00178 -0.00134 -0.00200 -0.00312 -0.00334 0.00097
270.72482 -0.00022 -0.00156 -0.00267 -0.00045 -0.00089 0.00096
270.73455 0.00045 0.00179 0.00179 -0.00045 0.00112 0.00095
270.74432 0.00201 0.00179 -0.00112 0.00223 0.00313 0.00089
270.75407 0.00357 0.00290 0.00379 0.00379 0.00468 0.00096
270.76383 0.00044 0.00066 -0.00133 0.00000 0.00111 0.00093
270.77357 0.00594 0.00286 0.00330 0.00110 0.00198 0.00096
270.78334 -0.00132 -0.00419 0.00044 -0.00242 -0.00088 0.00101
270.79308 0.00088 -0.00088 -0.00177 -0.00177 -0.00221 0.00095
270.80284 0.00066 0.00133 0.00000 0.00309 0.00110 0.00096
270.81259 0.00329 0.00110 0.00132 0.00263 0.00132 0.00096
270.82235 0.00087 0.00306 -0.00022 -0.00087 0.00022 0.00096
270.83209 -0.00066 -0.00088 -0.00241 0.00000 0.00066 0.00098
270.84186 0.00242 0.00044 0.00198 0.00242 0.00264 0.00097
270.85160 0.00153 0.00022 0.00241 0.00131 0.00022 0.00096
270.86136 0.00286 0.00374 0.00264 0.00352 0.00462 0.00096
270.87111 0.00198 0.00331 -0.00154 0.00000 -0.00309 0.00097
270.88088 -0.00066 0.00220 0.00088 0.00220 0.00000 0.00097
270.89061 0.00044 0.00088 0.00375 0.00220 0.00000 0.00094
270.90036 -0.00066 -0.00022 -0.00264 -0.00110 0.00220 0.00096
270.91012 0.00353 0.00198 0.00287 -0.00022 0.00000 0.00098
270.91986 -0.00111 -0.00066 0.00089 0.00022 -0.00177 0.00099
270.92963 -0.00044 -0.00133 0.00177 0.00421 -0.00155 0.00098
270.93937 0.00397 -0.00022 0.00199 0.00375 0.00375 0.00098
270.94913 0.00044 0.00066 0.00000 -0.00044 0.00199 0.00097
270.95888 0.00307 0.00197 0.00263 0.00417 0.00176 0.00097
270.96861 0.00220 0.00088 -0.00088 0.00088 -0.00154 0.00099
270.97838 0.00310 0.00044 0.00333 0.00466 0.00155 0.00098
270.98812 0.00266 0.00465 0.00089 0.00244 0.00266 0.00100
270.99789 -0.00220 0.00110 -0.00044 -0.00066 -0.00044 0.00096
271.00762 0.00132 0.00153 0.00088 0.00263 0.00175 0.00089
271.01737 0.00109 0.00241 0.00022 0.00153 0.00131 0.00085
271.02714 0.00131 0.00022 0.00219 0.00175 0.00088 0.00057
271.03687 0.00263 0.00328 0.00241 0.00416 0.00525 0.00094
271.04665 0.00329 0.00088 0.00022 -0.00066 -0.00022 0.00093
271.05638 -0.00198 0.00044 -0.00264 -0.00110 0.00154 0.00100
271.06612 -0.00044 0.00133 0.00133 0.00199 0.00199 0.00099
271.07589 0.00420 0.00442 0.00442 0.00354 0.00310 0.00102
271.08563 0.00111 0.00243 0.00265 0.00199 0.00420 0.00101
271.09536 0.00401 0.00423 0.00334 0.00401 0.00267 0.00099
271.10514 0.00022 -0.00245 0.00022 -0.00223 -0.00111 0.00098
271.11487 0.00266 0.00310 0.00576 0.00354 0.00288 0.00098
271.12461 0.00397 -0.00154 0.00000 0.00309 0.00265 0.00097
271.13438 0.00374 0.00441 0.00308 0.00419 0.00176 0.00100
271.14412 0.00088 0.00551 0.00044 0.00375 0.00375 0.00103
271.15385 0.00330 0.00176 0.00220 0.00022 0.00066 0.00111
271.16363 0.00442 0.00486 0.00287 0.00199 0.00177 0.00099
271.17336 -0.00111 -0.00178 -0.00223 -0.00245 -0.00134 0.00104
271.18310 0.00246 0.00157 0.00090 0.00291 0.00269 0.00103
271.19288 0.00090 0.00022 0.00045 0.00067 0.00247 0.00104
271.20261 0.00314 -0.00045 0.00179 0.00448 0.00291 0.00102
271.21235 0.00314 0.00269 0.00493 0.00202 0.00090 0.00085
271.22212 0.00357 0.00312 0.00446 0.00089 0.00111 0.00101
271.23186 0.00221 0.00288 0.00332 0.00288 0.00044 0.00102
271.24159 0.00420 0.00287 0.00221 0.00221 0.00265 0.00103
271.25134 0.00044 0.00222 0.00133 0.00000 0.00288 0.00105
271.26110 0.00178 -0.00111 -0.00156 -0.00200 0.00067 0.00105
271.27084 0.00446 0.00334 0.00268 0.00000 0.00089 0.00103
271.28058 0.00289 0.00378 -0.00289 0.00423 0.00267 0.00100
271.29035 0.00223 0.00245 0.00223 0.00134 0.00312 0.00105
271.30008 0.00243 -0.00066 -0.00111 0.00155 -0.00088 0.00103
271.30983 0.00484 0.00220 0.00440 0.00242 0.00462 0.00104
271.31956 -0.00088 0.00153 -0.00197 0.00110 0.00307 0.00104
271.32930 0.00286 0.00264 0.00132 0.00220 0.00088 0.00103
271.33907 0.00000 0.00220 0.00176 0.00044 0.00286 0.00104
271.34881 0.00131 -0.00131 -0.00087 -0.00044 -0.00131 0.00105
271.35855 0.00152 0.00238 0.00065 0.00303 0.00065 0.00104
271.36829 0.00065 -0.00130 -0.00065 -0.00173 0.00065 0.00103
271.37805 0.00304 0.00261 0.00000 0.00043 0.00065 0.00103
271.38780 0.00522 0.00544 0.00022 0.00131 0.00196 0.00102
271.39754 0.00239 0.00131 0.00044 0.00261 0.00174 0.00102
271.40727 0.00022 0.00240 0.00305 0.00283 0.00174 0.00104
271.41702 0.00220 0.00066 0.00527 0.00373 0.00329 0.00100
271.42678 0.00418 0.00264 0.00176 0.00066 0.00330 0.00103
271.43652 0.00307 0.00220 0.00307 0.00176 0.00659 0.00107
271.44626 0.00307 0.00350 0.00329 0.00569 0.00460 0.00113
271.45600 -0.00022 0.00044 0.00088 0.00264 -0.00176 0.00111
271.46573 0.00219 0.00393 0.00306 0.00109 0.00372 0.00109
271.47551 -0.00022 0.00000 -0.00043 -0.00065 -0.00065 0.00104
271.48524 0.00000 0.00065 0.00087 0.00043 0.00217 0.00105
271.49498 -0.00109 -0.00326 0.00043 -0.00130 -0.00065 0.00106
271.50472 0.00413 0.00413 0.00413 0.00456 0.00521 0.00104
271.51446 0.00216 0.00173 0.00130 0.00108 0.00108 0.00103
271.52419 0.00000 0.00043 -0.00237 -0.00065 -0.00065 0.00104
271.53394 0.00431 0.00129 0.00366 0.00431 0.00409 0.00106
271.54370 0.00322 0.00279 0.00150 0.00279 -0.00129 0.00107
271.55344 0.00193 0.00364 0.00493 0.00300 0.00171 0.00103
271.56318 0.00150 0.00171 0.00171 0.00107 0.00514 0.00105
271.57292 0.00151 0.00259 0.00065 0.00303 0.00043 0.00107
271.58265 0.00238 0.00000 -0.00151 0.00065 -0.00065 0.00106
271.59240 0.00087 0.00043 0.00065 0.00108 0.00173 0.00105
271.60213 0.00195 0.00065 -0.00152 0.00217 0.00347 0.00107
271.61187 0.00303 0.00152 0.00282 0.00065 0.00282 0.00108
271.62161 0.00086 0.00043 -0.00302 0.00129 0.00043 0.00105
271.63138 0.00476 0.00151 0.00281 0.00195 0.00065 0.00107
271.64111 0.00108 0.00173 0.00065 0.00260 0.00260 0.00108
271.65086 0.00086 0.00043 0.00108 0.00281 0.00281 0.00107
271.66060 0.00173 -0.00108 0.00043 -0.00086 -0.00065 0.00109
271.67033 -0.00108 -0.00151 -0.00043 -0.00108 -0.00108 0.00108
271.68008 0.00323 0.00216 0.00323 0.00453 0.00129 0.00108
271.68981 0.00043 0.00151 0.00108 0.00301 0.00151 0.00106
271.69955 0.00000 -0.00065 0.00086 -0.00065 -0.00043 0.00108
271.70929 0.00257 0.00086 0.00064 0.00364 0.00193 0.00107
271.71903 0.00022 0.00129 0.00108 0.00108 0.00280 0.00111
271.72876 0.00195 0.00260 0.00173 0.00304 0.00108 0.00106
271.73851 0.00152 0.00304 0.00087 0.00087 0.00043 0.00106
271.74824 0.00000 0.00108 0.00043 0.00000 0.00065 0.00108
271.75798 0.00411 0.00303 0.00346 0.00368 0.00346 0.00109
271.76772 -0.00086 0.00043 -0.00065 -0.00022 0.00000 0.00109
271.77746 0.00558 0.00172 0.00301 0.00258 0.00601 0.00111
271.78719 0.00043 -0.00321 0.00000 0.00021 -0.00064 0.00108
271.79694 0.00279 -0.00150 0.00021 0.00107 0.00021 0.00112
271.80667 0.00108 0.00281 0.00238 0.00433 0.00281 0.00110
271.81641 0.00153 0.00436 0.00087 0.00218 0.00022 0.00111
271.82615 0.00044 -0.00153 -0.00219 -0.00087 0.00241 0.00113
271.83589 0.00327 0.00022 0.00065 0.00196 0.00109 0.00112
271.84562 0.00240 0.00632 0.00523 0.00349 0.00436 0.00115
271.85537 0.00000 0.00044 -0.00044 0.00000 -0.00262 0.00112
271.86510 -0.00022 -0.00195 -0.00130 -0.00087 -0.00108 0.00114
271.87484 0.00369 0.00130 -0.00065 0.00087 0.00304 0.00114
271.88458 -0.00262 -0.00065 -0.00065 -0.00044 -0.00044 0.00114
271.89432 0.00152 -0.00065 0.00087 0.00261 0.00370 0.00114
271.90405 0.00566 0.00131 0.00152 0.00261 0.00479 0.00111
271.91380 0.00043 0.00217 0.00130 0.00152 -0.00087 0.00115
271.92353 0.00000 0.00262 0.00087 -0.00109 -0.00153 0.00114
271.93327 0.00283 0.00131 0.00240 0.00370 0.00327 0.00117
271.94301 0.00349 0.00262 0.00087 0.00523 0.00371 0.00117
271.95275 -0.00087 0.00152 0.00152 0.00348 -0.00043 0.00125
271.96248 0.00327 0.00000 -0.00109 0.00218 0.00196 0.00124
271.97223 0.00109 0.00066 -0.00153 -0.00088 0.00175 0.00119
271.98196 0.00286 0.00374 0.00220 0.00242 0.00352 0.00117
271.99170 0.00176 0.00000 0.00419 0.00507 0.00243 0.00120
272.00144 0.00221 0.00110 -0.00022 -0.00133 -0.00088 0.00116
272.01115 0.00110 0.00263 0.00241 0.00417 0.00263 0.00118
272.02088 0.00022 0.00022 0.00174 -0.00087 0.00022 0.00116
272.03063 -0.00153 0.00371 0.00000 0.00218 0.00044 0.00119
272.04036 0.00044 0.00044 -0.00219 -0.00131 0.00109 0.00117
272.05010 -0.00197 0.00175 0.00088 -0.00044 0.00022 0.00115
272.05984 0.00000 -0.00242 0.00088 0.00198 -0.00044 0.00119
272.06958 0.00109 -0.00088 -0.00044 0.00153 -0.00022 0.00120
272.07932 0.00392 0.00392 0.00501 0.00305 0.00305 0.00117
272.08903 0.00282 0.00325 0.00282 0.00173 0.00217 0.00119
272.09876 0.00387 0.00560 0.00581 0.00215 0.00258 0.00121
272.10851 0.00215 0.00258 0.00065 0.00194 0.00344 0.00116
272.11824 0.00172 0.00151 0.00172 0.00216 0.00388 0.00121
272.12798 0.00065 0.00065 -0.00065 0.00325 -0.00195 0.00120
272.13772 0.00022 0.00000 -0.00022 -0.00195 -0.00043 0.00119
272.14746 0.00346 0.00411 0.00368 0.00411 0.00173 0.00122
272.15716 0.00367 0.00540 0.00475 0.00302 0.00389 0.00117
272.16691 0.00367 0.00086 -0.00151 0.00194 -0.00237 0.00122
272.17664 0.00215 0.00129 -0.00151 0.00022 0.00151 0.00118
272.18638 0.00216 0.00259 0.00022 0.00281 0.00432 0.00122
272.19612 0.00174 0.00239 0.00195 0.00065 0.00130 0.00121
272.20583 0.00369 0.00326 0.00152 0.00174 0.00217 0.00120
272.21556 0.00196 0.00174 0.00261 0.00392 0.00327 0.00120
272.22531 -0.00240 0.00109 -0.00370 -0.00174 -0.00435 0.00123
272.23504 0.00197 0.00153 0.00218 -0.00087 -0.00131 0.00122
272.24478 -0.00153 -0.00131 0.00000 -0.00218 -0.00109 0.00123
272.25449 -0.00022 0.00262 0.00087 0.00371 0.00349 0.00124
272.26423 0.00373 0.00153 0.00132 -0.00022 0.00329 0.00123
272.27396 0.00154 0.00219 0.00154 0.00066 0.00175 0.00122
272.28371 -0.00110 0.00022 0.00131 0.00110 0.00088 0.00123
272.29344 0.00044 0.00066 0.00044 -0.00044 -0.00087 0.00123
272.30315 0.00196 0.00109 -0.00065 0.00131 0.00087 0.00125
272.31289 0.00283 0.00305 0.00392 0.00392 0.00305 0.00124
272.32263 0.00195 0.00217 0.00173 0.00173 0.00065 0.00124
272.33236 0.00087 0.00541 0.00108 0.00216 0.00130 0.00127
272.34208 -0.00239 -0.00414 0.00065 0.00065 -0.00065 0.00128
272.35181 0.00500 0.00304 -0.00022 0.00065 0.00174 0.00129
272.36155 0.00022 0.00109 0.00087 0.00065 0.00087 0.00132
272.37129 0.00152 0.00523 0.00131 0.00261 0.00261 0.00135
272.38100 0.00436 0.00153 0.00196 0.00044 0.00044 0.00128
272.39073 -0.00350 -0.00197 -0.00087 -0.00131 -0.00153 0.00128
272.40048 0.00022 0.00241 0.00044 0.00197 0.00197 0.00129
272.41018 0.00352 0.00308 0.00264 0.00308 0.00396 0.00127
272.41992 -0.00132 -0.00154 -0.00154 -0.00110 0.00066 0.00130
272.42966 0.00556 0.00378 0.00289 0.00156 0.00422 0.00102
272.43937 -0.00155 -0.00111 -0.00111 0.00022 -0.00067 0.00125
272.44910 -0.00022 0.00244 0.00000 0.00000 0.00066 0.00130
272.45885 -0.00111 0.00156 -0.00022 -0.00111 0.00044 0.00130
272.46858 -0.00201 0.00245 -0.00067 -0.00245 0.00223 0.00132
272.47829 0.00224 0.00090 0.00179 -0.00022 0.00269 0.00133
272.48803 0.00157 -0.00112 0.00045 0.00246 0.00112 0.00125
272.49777 0.00427 0.00202 0.00472 0.00449 0.00315 0.00127
272.50747 0.00090 0.00023 0.00000 0.00225 0.00225 0.00146
272.51722 0.00112 0.00112 0.00315 0.00067 0.00112 0.00138
272.52692 0.00157 0.00000 -0.00179 0.00246 -0.00067 0.00137
272.53666 0.00334 0.00312 0.00446 0.00357 0.00022 0.00134
272.54640 0.00089 0.00223 0.00111 0.00423 0.00134 0.00137
272.55611 0.00000 -0.00111 -0.00178 0.00156 -0.00223 0.00135
272.56584 0.00134 0.00112 -0.00179 0.00223 0.00201 0.00138
272.57559 0.00382 0.00314 0.00382 0.00337 0.00382 0.00137
272.58529 -0.00023 -0.00203 -0.00271 -0.00090 0.00045 0.00140
272.59503 0.00203 0.00226 0.00248 0.00135 0.00158 0.00142
272.60474 0.00135 0.00180 -0.00113 0.00451 -0.00023 0.00141
272.61448 -0.00023 -0.00023 0.00068 0.00068 0.00045 0.00136
272.62421 0.00294 0.00068 0.00113 0.00339 0.00045 0.00138
272.63393 0.00113 -0.00068 0.00091 0.00091 0.00181 0.00138
272.64366 0.00386 0.00182 0.00409 0.00545 0.00432 0.00142
272.65337 0.00636 0.00114 0.00363 0.00386 0.00522 0.00141
272.66311 0.00045 0.00091 0.00068 -0.00182 0.00000 0.00142
272.67285 0.00408 0.00159 0.00362 0.00272 0.00385 0.00142
272.68255 0.00202 0.00022 0.00202 0.00157 0.00337 0.00138
272.69230 0.00290 0.00112 0.00089 0.00223 0.00089 0.00141
272.70200 0.00357 0.00335 0.00000 0.00112 0.00290 0.00138
272.71175 -0.00269 -0.00157 -0.00112 -0.00135 0.00135 0.00139
272.72145 0.00248 0.00023 0.00180 0.00135 0.00113 0.00141
272.73119 -0.00135 -0.00180 0.00000 -0.00113 0.00090 0.00140
272.74093 0.00450 0.00247 0.00180 0.00112 0.00360 0.00142
272.75064 0.00313 0.00381 0.00336 0.00336 0.00381 0.00141
272.76037 -0.00067 -0.00111 -0.00067 -0.00355 -0.00089 0.00142
272.77009 -0.00111 -0.00177 -0.00088 0.00221 0.00155 0.00141
272.77982 0.00445 0.00222 0.00311 0.00445 0.00489 0.00143
272.78953 0.00177 0.00067 0.00288 -0.00067 0.00111 0.00142
272.79927 0.00397 0.00441 0.00044 0.00419 0.00044 0.00142
272.80897 0.00110 0.00044 -0.00044 0.00199 0.00177 0.00141
272.81871 -0.00155 -0.00398 -0.00243 -0.00111 -0.00265 0.00145
272.82842 0.00089 0.00111 0.00133 0.00488 0.00488 0.00143
272.83816 0.00487 0.00420 0.00553 0.00509 0.00221 0.00144
272.84786 0.00510 0.00244 0.00466 0.00443 0.00089 0.00147
272.85761 -0.00067 0.00000 0.00334 0.00245 0.00089 0.00148
272.86731 0.00245 0.00156 0.00111 -0.00067 0.00245 0.00146
272.87705 -0.00112 -0.00067 -0.00022 -0.00067 0.00089 0.00146
272.88676 -0.00134 -0.00067 -0.00112 0.00201 -0.00090 0.00139
272.89650 0.00157 0.00426 0.00314 0.00337 0.00314 0.00143
272.90620 0.00022 0.00225 0.00112 0.00180 0.00292 0.00144
272.91592 0.00158 0.00068 0.00023 0.00090 -0.00270 0.00146
272.92565 0.00247 0.00517 0.00045 0.00180 0.00247 0.00149
272.93536 0.00447 0.00224 0.00358 0.00380 0.00693 0.00148
272.94510 0.00223 0.00446 0.00179 0.00201 0.00312 0.00149
272.95481 0.00202 0.00404 0.00449 0.00224 0.00404 0.00150
272.96454 -0.00179 0.00157 -0.00067 -0.00448 -0.00202 0.00150
272.97426 0.00201 0.00067 0.00312 0.00246 0.00379 0.00150
272.98396 0.00044 0.00289 0.00289 0.00422 0.00377 0.00152
272.99370 0.00599 0.00355 0.00244 0.00288 0.00222 0.00151
273.00341 0.00509 0.00310 0.00177 0.00509 0.00288 0.00150
273.01315 0.00044 0.00089 0.00222 0.00177 0.00066 0.00148
273.02285 0.00177 0.00155 -0.00022 0.00022 0.00022 0.00120
273.03260 0.00000 0.00156 0.00289 0.00311 0.00133 0.00166
273.04230 0.00267 0.00178 0.00379 0.00356 0.00468 0.00151
273.05201 0.00111 0.00134 0.00200 0.00134 0.00045 0.00146
273.06175 0.00155 0.00466 0.00178 0.00533 0.00267 0.00154
273.07146 -0.00290 -0.00156 -0.00223 0.00134 0.00022 0.00156
273.08116 0.00381 0.00246 0.00313 0.00269 0.00381 0.00155
273.09090 0.00336 0.00403 0.00134 -0.00134 0.00157 0.00159
273.10061 0.00737 0.00580 0.00558 0.00179 0.00491 0.00163
273.11034 0.00245 -0.00067 0.00022 -0.00112 -0.00089 0.00167
273.12006 0.00178 0.00156 0.00067 0.00111 -0.00111 0.00156
273.12976 0.00333 0.00311 -0.00200 0.00244 0.00222 0.00158
273.13950 0.00221 0.00265 0.00375 0.00265 0.00155 0.00157
273.14921 -0.00044 0.00133 -0.00044 0.00177 -0.00088 0.00156
273.15892 0.00222 0.00266 0.00111 0.00089 0.00022 0.00162
273.16865 0.00512 0.00289 0.00334 0.00534 0.00067 0.00156
273.17837 0.00422 0.00022 0.00222 0.00266 0.00266 0.00157
273.18807 0.00022 0.00332 0.00133 0.00066 0.00133 0.00159
273.19778 0.00243 0.00155 0.00353 0.00177 0.00398 0.00159
273.20752 0.00176 0.00242 0.00022 0.00110 0.00242 0.00156
273.21723 0.00440 0.00264 0.00330 0.00308 0.00396 0.00159
273.22693 0.00264 0.00286 0.00132 -0.00066 0.00264 0.00161
273.23668 0.00486 0.00442 0.00199 0.00221 0.00354 0.00162
273.24638 -0.00177 -0.00022 0.00244 -0.00355 0.00022 0.00162
273.25609 0.00022 0.00111 0.00000 0.00000 -0.00044 0.00162
273.26583 0.00066 0.00088 0.00155 0.00088 0.00509 0.00161
273.27554 0.00199 0.00066 0.00177 0.00199 0.00309 0.00162
273.28525 0.00132 0.00198 0.00242 0.00352 0.00154 0.00162
273.29495 0.00483 0.00329 0.00176 0.00219 0.00527 0.00164
273.30469 0.00285 0.00197 0.00088 -0.00110 -0.00066 0.00162
273.31440 0.00066 0.00066 0.00000 0.00243 0.00089 0.00165
273.32411 0.00400 0.00289 0.00111 0.00422 0.00044 0.00167
273.33381 0.00396 0.00110 0.00286 0.00484 0.00264 0.00164
273.34356 0.00437 0.00677 0.00546 0.00611 0.00371 0.00164
273.35326 0.00262 0.00284 0.00327 0.00415 0.00349 0.00166
273.36297 0.00000 -0.00066 0.00022 0.00131 0.00175 0.00165
273.37268 0.00611 0.00502 0.00524 0.00349 0.00633 0.00165
273.38242 0.00284 0.00328 0.00087 0.00328 0.00415 0.00166
273.39212 0.00394 0.00722 0.00416 0.00460 0.00241 0.00168
273.40184 0.00088 -0.00022 0.00000 -0.00241 0.00022 0.00169
273.41154 0.00087 0.00284 0.00066 0.00153 -0.00044 0.00170
273.42125 0.00413 0.00283 0.00370 0.00217 0.00283 0.00168
273.43099 0.00217 0.00087 0.00130 -0.00173 -0.00022 0.00169
273.44070 0.00369 0.00152 0.00174 0.00326 0.00174 0.00168
273.45040 0.00455 0.00325 0.00238 0.00216 0.00411 0.00163
273.46011 -0.00108 0.00215 -0.00129 0.00172 -0.00129 0.00134
273.46982 0.00043 0.00301 0.00107 0.00129 0.00193 0.00169
273.47952 0.00302 0.00151 0.00151 0.00302 0.00129 0.00169
273.48927 0.00086 0.00129 0.00280 0.00065 0.00022 0.00170
273.49897 0.00043 0.00065 0.00281 0.00151 0.00346 0.00174
273.50868 0.00173 -0.00130 -0.00022 0.00000 0.00303 0.00168
273.51839 0.00434 0.00282 0.00152 0.00304 0.00109 0.00175
273.52810 -0.00260 -0.00130 0.00043 0.00087 0.00152 0.00170
273.53780 0.00260 0.00238 0.00411 0.00130 0.00260 0.00172
273.54752 0.00022 0.00259 0.00454 0.00216 0.00043 0.00174
273.55725 0.00478 0.00434 0.00304 0.00369 0.00587 0.00177
273.56696 0.00152 0.00000 0.00109 0.00044 0.00109 0.00178
273.57667 0.00392 0.00305 0.00349 0.00240 0.00305 0.00175
273.58638 0.00065 0.00131 0.00436 0.00065 0.00348 0.00176
273.59608 0.00283 0.00239 -0.00065 0.00348 0.00109 0.00177
273.60579 0.00346 0.00173 0.00151 0.00497 0.00476 0.00178
273.61550 0.00541 0.00260 0.00282 0.00260 0.00390 0.00178
273.62520 0.00087 0.00239 0.00000 0.00022 -0.00131 0.00178
273.63492 0.00065 0.00109 0.00152 -0.00087 0.00305 0.00179
273.64465 0.00585 0.00412 0.00585 0.00434 0.00477 0.00180
273.65436 0.00303 0.00217 0.00152 0.00303 0.00043 0.00181
273.66407 0.00260 0.00000 0.00152 0.00043 0.00282 0.00170
273.67378 0.00238 -0.00022 -0.00151 0.00173 0.00065 0.00177
273.68348 0.00432 -0.00216 0.00000 0.00259 0.00194 0.00179
273.69320 0.00498 0.00412 0.00823 0.00715 0.00520 0.00183
273.70290 0.00327 0.00218 0.00174 0.00044 0.00305 0.00187
273.71261 0.00066 0.00000 0.00022 -0.00022 -0.00153 0.00182
273.72232 0.00218 0.00459 0.00350 0.00240 0.00197 0.00186
273.73202 0.00327 0.00153 0.00022 -0.00305 0.00065 0.00186
273.74173 0.00066 -0.00044 0.00066 -0.00022 -0.00066 0.00188
273.75144 0.00154 0.00044 0.00110 0.00088 -0.00066 0.00189
273.76115 0.00372 0.00350 -0.00044 0.00284 0.00569 0.00188
273.77086 0.00152 0.00109 0.00282 0.00217 0.00196 0.00188
273.78057 0.00217 0.00152 0.00130 0.00043 0.00326 0.00186
273.79027 0.00217 -0.00022 0.00347 0.00326 0.00369 0.00187
273.79999 0.00000 0.00217 0.00109 0.00109 0.00000 0.00189
273.80969 0.00087 -0.00109 0.00131 0.00109 0.00131 0.00191
273.81940 0.00503 0.00175 0.00219 0.00022 0.00350 0.00192
273.82911 0.00243 0.00133 0.00332 -0.00044 0.00133 0.00197
273.83881 0.00443 0.00044 0.00377 0.00288 0.00310 0.00201
273.84852 0.00111 0.00288 0.00532 0.00621 0.00710 0.00200
273.85823 0.00444 0.00022 0.00244 0.00111 0.00333 0.00199
273.86794 0.00465 0.00310 0.00288 0.00443 0.00487 0.00200
273.87764 0.00374 0.00264 -0.00044 -0.00088 0.00242 0.00195
273.88736 0.00264 0.00198 0.00220 0.00132 0.00176 0.00203
273.89706 0.00308 0.00308 0.00198 0.00264 0.00242 0.00200
273.90677 0.00465 0.00465 0.00265 0.00243 0.00354 0.00197
273.91648 0.00443 0.00155 0.00377 0.00355 0.00510 0.00201
273.92619 0.00156 0.00022 0.00022 0.00267 0.00111 0.00213
273.93589 0.00355 0.00511 0.00222 0.00222 0.00155 0.00209
273.94561 0.00000 0.00044 0.00022 0.00088 0.00022 0.00199
273.95531 0.00482 0.00066 0.00197 0.00328 0.00197 0.00198
273.96501 0.00479 0.00305 0.00413 0.00326 0.00326 0.00200
273.97473 0.00589 0.00501 0.00262 0.00327 0.00240 0.00197
273.98443 0.00262 0.00218 0.00392 0.00087 0.00044 0.00201
273.99411 -0.00022 0.00174 0.00000 0.00282 0.00217 0.00201
274.00382 0.00260 0.00368 0.00195 0.00217 0.00108 0.00199
274.01353 0.00369 0.00369 0.00217 0.00260 0.00238 0.00203
274.02323 0.00282 0.00412 0.00065 0.00412 0.00585 0.00201
274.03295 0.00303 -0.00108 0.00152 -0.00217 0.00217 0.00201
274.04265 0.00130 0.00087 -0.00022 0.00065 0.00152 0.00201
274.05236 0.00261 0.00261 0.00152 0.00261 0.00327 0.00204
274.06207 0.00371 -0.00044 0.00371 0.00066 0.00131 0.00204
274.07177 0.00567 0.00502 0.00589 0.00502 0.00502 0.00208
274.08145 0.00326 0.00413 0.00261 0.00391 0.00283 0.00207
274.09116 0.00152 0.00065 0.00174 0.00174 0.00391 0.00205
274.10087 0.00632 0.00305 0.00392 0.00566 0.00218 0.00206
274.11057 0.00476 0.00281 0.00541 0.00454 0.00454 0.00206
274.12029 0.00474 -0.00043 0.00344 0.00517 0.00237 0.00205
274.12999 0.00215 0.00065 0.00194 0.00237 -0.00022 0.00205
274.13967 0.00368 0.00325 0.00238 0.00065 0.00238 0.00209
274.14938 0.00433 0.00260 0.00260 0.00325 0.00325 0.00206
274.15908 0.00518 0.00410 0.00346 0.00605 0.00367 0.00214
274.16879 0.00172 0.00280 0.00323 0.00409 0.00344 0.00209
274.17850 0.00236 0.00064 0.00300 0.00236 0.00408 0.00213
274.18821 0.00107 0.00000 0.00064 -0.00128 0.00235 0.00210
274.19788 0.00277 0.00277 0.00362 0.00383 0.00468 0.00214
274.20760 0.00405 0.00448 0.00491 0.00171 0.00320 0.00209
274.21730 0.00301 0.00172 0.00279 0.00301 0.00150 0.00212
274.22701 0.00043 -0.00043 0.00215 0.00258 0.00022 0.00213
274.23672 0.00475 0.00151 0.00475 0.00302 0.00216 0.00213
274.24640 0.00303 0.00238 0.00043 0.00281 0.00216 0.00216
274.25611 0.00043 0.00000 -0.00043 0.00129 0.00323 0.00214
274.26581 0.00086 0.00150 0.00150 0.00278 0.00300 0.00215
274.27552 0.00600 0.00407 0.00150 0.00279 0.00450 0.00215
274.28520 0.00151 0.00151 0.00086 0.00237 0.00301 0.00217
274.29491 0.00302 -0.00022 -0.00108 0.00108 0.00129 0.00217
274.30461 -0.00065 -0.00151 0.00344 0.00323 0.00022 0.00219
274.31433 0.00257 0.00193 0.00171 0.00321 0.00214 0.00213
274.32400 0.00386 0.00258 0.00451 0.00258 0.00279 0.00215
274.33371 0.00388 0.00453 0.00582 0.00647 0.00323 0.00219
274.34342 0.00433 0.00022 0.00303 0.00260 0.00281 0.00226
274.35312 0.00368 0.00238 0.00325 0.00476 0.00411 0.00227
274.36280 0.00326 0.00043 0.00477 0.00347 0.00369 0.00229
274.37251 0.00239 0.00326 0.00260 0.00564 0.00217 0.00231
274.38222 0.00152 0.00152 0.00239 0.00065 0.00239 0.00232
274.39189 0.00304 0.00564 0.00347 0.00694 0.00456 0.00233
274.40161 0.00043 -0.00108 -0.00065 0.00065 0.00368 0.00231
274.41131 0.00302 -0.00302 -0.00086 0.00216 0.00130 0.00227
274.42099 0.00151 0.00237 0.00345 0.00259 0.00065 0.00227
274.43070 0.00236 0.00279 0.00172 -0.00129 0.00064 0.00230
274.44040 0.00022 0.00151 0.00194 0.00194 0.00301 0.00228
274.45011 0.00195 0.00605 0.00324 0.00108 0.00303 0.00227
274.45979 0.00304 0.00326 0.00370 0.00283 0.00239 0.00226
274.46950 0.00393 0.00284 0.00196 0.00109 0.00393 0.00218
274.47920 0.00152 0.00131 -0.00044 0.00000 0.00022 0.00232
274.48889 0.00437 0.00306 0.00502 0.00371 0.00371 0.00237
274.49859 0.00044 0.00261 0.00087 0.00000 0.00283 0.00237
274.50826 0.00240 0.00392 0.00349 0.00196 0.00436 0.00237
274.51798 0.00657 0.00416 0.00394 0.00109 0.00328 0.00235
274.52768 0.00351 0.00394 0.00241 0.00329 0.00044 0.00233
274.53736 0.00087 0.00284 0.00109 0.00022 0.00284 0.00232
274.54707 0.00065 0.00108 -0.00043 0.00152 -0.00130 0.00227
274.55678 0.00325 0.00281 0.00130 0.00368 0.00065 0.00228
274.56645 0.00130 0.00260 0.00390 0.00390 0.00217 0.00233
274.57617 0.00392 0.00065 0.00305 0.00349 0.00436 0.00233
274.58584 0.00307 0.00263 0.00285 0.00088 0.00263 0.00235
274.59554 0.00066 0.00372 0.00263 0.00175 0.00460 0.00242
274.60526 -0.00044 0.00262 0.00262 0.00087 0.00459 0.00246
274.61493 0.00436 0.00240 0.00479 0.00479 0.00370 0.00245
274.62464 -0.00022 -0.00022 0.00218 0.00153 -0.00022 0.00248
274.63432 0.00635 0.00197 0.00328 0.00197 0.00219 0.00250
274.64403 0.00131 0.00394 0.00197 0.00285 0.00175 0.00250
274.65373 0.00000 0.00240 0.00065 0.00174 0.00218 0.00248
274.66342 0.00282 0.00260 0.00239 0.00109 0.00326 0.00249
274.67312 0.00130 0.00411 0.00433 0.00195 0.00368 0.00248
274.68280 0.00347 0.00152 0.00412 0.00455 0.00607 0.00249
274.69251 0.00087 0.00109 0.00022 0.00065 0.00043 0.00251
274.70218 0.00283 0.00456 0.00435 0.00370 0.00348 0.00253
274.71190 0.00412 0.00585 0.00585 0.00347 0.00434 0.00251
274.72157 0.00605 0.00648 0.00540 0.00324 0.00562 0.00253
274.73128 0.00065 0.00367 0.00238 0.00324 0.00475 0.00252
274.74096 0.00474 0.00345 -0.00043 0.00151 0.00280 0.00254
274.75066 0.00237 0.00259 0.00043 0.00259 0.00216 0.00253
274.76037 0.00237 0.00324 0.00216 0.00302 0.00194 0.00255
274.77005 0.00345 0.00410 0.00280 0.00237 0.00367 0.00256
274.77976 0.00388 0.00151 0.00237 0.00151 0.00172 0.00261
274.78943 0.00022 0.00000 -0.00086 -0.00108 0.00129 0.00265
274.79915 0.00777 0.00799 0.00820 0.00799 0.00669 0.00259
274.80882 0.00474 0.00194 0.00302 0.00410 0.00367 0.00259
274.81849 0.00365 0.00172 0.00301 0.00344 0.00537 0.00256
274.82821 0.00408 0.00107 0.00150 0.00344 0.00236 0.00256
274.83788 0.00366 0.00129 0.00430 0.00344 0.00624 0.00260
274.84759 0.00344 -0.00021 0.00107 0.00021 0.00150 0.00262
274.85727 0.00386 0.00429 0.00214 0.00429 0.00708 0.00262
274.86698 0.00558 0.00343 0.00086 0.00236 0.00172 0.00263
274.87665 0.00259 0.00086 0.00022 0.00323 0.00345 0.00264
274.88637 0.00152 0.00303 0.00303 0.00130 0.00542 0.00267
274.89604 0.00261 0.00196 0.00304 0.00109 0.00196 0.00269
274.90574 0.00436 0.00545 0.00479 0.00152 0.00283 0.00268
274.91543 0.00370 0.00305 0.00065 0.00283 0.00305 0.00270
274.92513 0.00544 0.00566 0.00653 0.00544 0.00457 0.00276
274.93481 0.00674 0.00326 0.00391 0.00522 0.00543 0.00270
274.94449 0.00520 0.00304 0.00607 0.00564 0.00499 0.00271
274.95420 0.00540 0.00410 0.00389 0.00497 0.00389 0.00270
274.96387 0.00322 0.00236 0.00365 0.00365 0.00430 0.00265
274.97358 0.00581 0.00237 0.00452 0.00280 0.00280 0.00271
274.98326 0.00151 0.00237 0.00065 0.00108 0.00086 0.00277
274.99293 0.00301 0.00301 0.00172 0.00301 0.00193 0.00274
275.00265 0.00322 0.00343 0.00557 0.00407 0.00600 0.00278
275.01232 0.00342 -0.00021 0.00128 0.00449 0.00428 0.00273
275.02203 0.00342 0.00385 0.00342 0.00428 0.00428 0.00278
275.03171 0.00471 0.00321 0.00556 0.00620 0.00449 0.00274
275.04138 0.00342 0.00406 -0.00043 0.00171 0.00278 0.00278
275.05109 0.00320 0.00085 0.00213 0.00171 0.00235 0.00279
275.06077 0.00472 0.00300 0.00472 0.00386 0.00450 0.00281
275.07045 0.00407 0.00043 0.00257 0.00171 0.00214 0.00280
275.08015 0.00492 0.00321 0.00150 0.00171 0.00299 0.00284
275.08983 0.00235 0.00214 0.00214 0.00107 0.00150 0.00281
275.09951 0.00150 0.00064 0.00150 0.00215 0.00279 0.00285
275.10922 0.00238 0.00194 0.00367 0.00346 0.00324 0.00288
275.11890 0.00238 0.00173 0.00216 0.00346 0.00476 0.00287
275.12857 0.00455 0.00325 0.00542 0.00195 0.00195 0.00288
275.13829 0.00239 0.00456 0.00304 0.00261 0.00196 0.00291
275.14796 0.00586 0.00369 0.00326 0.00521 0.00391 0.00291
275.15763 0.00281 0.00345 0.00151 0.00065 -0.00194 0.00291
275.16735 0.00366 0.00516 0.00301 0.00667 0.00538 0.00290
275.17702 0.00729 0.00300 0.00579 0.00751 0.00880 0.00286
275.18670 0.00601 0.00386 0.00300 0.00279 0.00408 0.00273
275.19641 0.00278 0.00385 0.00128 0.00514 0.00600 0.00291
275.20609 0.00301 0.00387 0.00258 0.00258 0.00623 0.00295
275.21576 0.00323 0.00258 0.00366 0.00387 0.00366 0.00295
275.22544 0.00194 0.00324 -0.00043 0.00194 0.00151 0.00300
275.23515 0.00409 0.00344 0.00473 0.00301 0.00581 0.00304
275.24482 0.00559 0.00408 0.00086 0.00279 0.00322 0.00302
275.25451 0.00150 0.00258 0.00236 0.00365 0.00236 0.00298
275.26418 0.00452 0.00430 0.00430 0.00258 0.00753 0.00300
275.27389 0.00217 0.00174 -0.00065 0.00304 0.00130 0.00305
275.28357 0.00283 0.00261 0.00348 0.00152 0.00065 0.00306
275.29324 0.00566 0.00218 0.00326 0.00435 0.00348 0.00304
275.30292 0.00410 0.00151 0.00194 0.00043 0.00431 0.00309
275.31263 0.00257 0.00385 0.00406 0.00321 0.00364 0.00301
275.32231 0.00278 0.00407 0.00107 0.00557 0.00235 0.00305
275.33198 0.00214 0.00428 0.00385 -0.00086 0.00021 0.00305
275.34166 0.00150 0.00257 0.00236 0.00557 0.00236 0.00306
275.35134 0.00753 0.00667 0.00538 0.00645 0.00559 0.00304
275.36104 0.00454 0.00173 0.00151 0.00302 0.00108 0.00306
275.37073 0.00302 0.00540 0.00345 0.00518 0.00367 0.00312
275.38040 -0.00107 -0.00021 0.00193 0.00064 -0.00043 0.00310
275.39008 0.00448 0.00470 0.00299 0.00192 0.00363 0.00306
275.39976 0.00212 0.00212 0.00212 0.00382 0.00191 0.00308
275.40946 0.00361 0.00319 0.00276 0.00191 0.00553 0.00316
275.41914 0.00364 0.00620 0.00535 0.00299 0.00257 0.00311
275.42882 0.00639 0.00575 0.00448 0.00512 0.00618 0.00312
275.43850 0.00424 0.00127 0.00127 0.00297 0.00212 0.00315
275.44817 0.00382 0.00318 0.00233 0.00467 0.00233 0.00309
275.45785 0.00509 0.00424 0.00339 0.00615 0.00233 0.00312
275.46756 0.00297 0.00021 0.00593 0.00508 0.00275 0.00315
275.47723 0.00786 0.00744 0.00701 0.00723 0.00553 0.00318
275.48692 0.00597 0.00363 0.00277 0.00554 0.00384 0.00318
275.49659 0.00725 0.00405 0.00469 0.00597 0.00555 0.00322
275.50627 0.00448 0.00533 0.00363 0.00555 0.00192 0.00321
275.51595 0.00320 0.00299 0.00363 0.00299 0.00342 0.00320
275.52562 0.00342 0.00642 0.00620 0.00428 0.00642 0.00326
275.53531 0.00516 0.00107 0.00279 0.00580 0.00215 0.00325
275.54501 0.00560 0.00474 0.00410 0.00647 0.00539 0.00330
275.55469 0.00539 0.00151 0.00172 0.00086 0.00323 0.00330
275.56437 0.00172 0.00365 0.00172 0.00322 0.00408 0.00330
275.57404 0.00470 0.00321 0.00278 0.00663 0.00235 0.00328
275.58372 0.00213 0.00192 0.00277 0.00512 0.00171 0.00328
275.59340 0.00641 0.00598 0.00555 0.00406 0.00812 0.00327
275.60308 0.00321 0.00300 0.00578 0.00471 0.00514 0.00335
275.61275 0.00661 0.00725 0.00576 0.00747 0.00747 0.00331
275.62243 0.00233 0.00360 0.00488 0.00382 0.00254 0.00328
275.63211 0.00424 0.00339 0.00445 0.00466 0.00318 0.00333
275.64178 0.00234 0.00234 0.00085 0.00319 0.00297 0.00335
275.65147 0.00446 0.00340 0.00722 0.00637 0.00234 0.00334
275.66114 0.00318 0.00594 0.00403 0.00446 0.00679 0.00336
275.67081 0.00533 0.00682 0.00448 0.00533 0.00341 0.00344
275.68053 0.00385 0.00407 0.00300 0.00514 0.00621 0.00341
275.69020 0.00471 0.00600 0.00578 0.00536 0.00514 0.00342
275.69988 0.00321 0.00128 0.00043 0.00107 0.00021 0.00347
275.70956 0.00150 0.00343 0.00279 0.00300 0.00279 0.00349
275.71924 0.00562 0.00454 0.00346 0.00713 0.00626 0.00347
275.72891 0.00562 0.00648 0.00411 0.00519 0.00692 0.00343
275.73859 0.00150 0.00279 0.00043 0.00172 0.00365 0.00339
275.74827 0.00258 0.00000 0.00129 0.00194 0.00237 0.00342
275.75794 -0.00064 0.00258 -0.00258 0.00215 0.00193 0.00352
275.76763 0.00514 0.00279 0.00129 0.00364 0.00257 0.00352
275.77730 0.00386 0.00386 0.00386 0.00407 0.00557 0.00356
275.78697 0.00624 0.00237 0.00645 0.00538 0.00516 0.00355
275.79666 0.00411 0.00476 0.00497 0.00497 0.00432 0.00358
275.80633 0.00628 0.00325 0.00390 0.00325 0.00368 0.00362
275.81601 0.00433 0.00260 0.00151 0.00238 0.00411 0.00367
275.82566 0.00452 0.00496 0.00366 0.00194 0.00280 0.00365
275.83533 0.00451 0.00344 0.00215 0.00709 0.00365 0.00359
275.84501 0.00708 0.00901 0.00815 0.00751 0.00944 0.00355
275.85469 0.00622 0.00601 0.00579 0.00622 0.00408 0.00365
275.86437 0.00215 0.00365 0.00301 0.00494 0.00516 0.00364
275.87405 0.00560 0.00366 0.00259 0.00431 0.00345 0.00366
275.88372 0.00863 0.00388 0.00604 0.00928 0.00993 0.00368
275.89340 0.00668 0.00431 0.00388 0.00625 0.00258 0.00370
275.90308 0.00583 0.00540 0.00302 0.00302 0.00497 0.00375
275.91276 0.00194 0.00086 0.00065 0.00323 0.00151 0.00374
275.92243 0.00257 0.00513 0.00556 0.00727 0.00535 0.00373
275.93211 0.00406 0.00555 0.00384 0.00534 0.00363 0.00374
275.94179 0.00342 0.00427 0.00321 0.00235 0.00470 0.00372
275.95143 0.00301 0.00430 0.00215 0.00322 0.00451 0.00377
275.96112 0.00492 0.00492 0.00470 0.00385 0.00492 0.00376
275.97079 0.00402 0.00572 0.00593 0.00657 0.00868 0.00375
275.98046 0.00148 0.00191 0.00148 0.00254 0.00127 0.00376
275.99015 0.00889 0.00931 0.00931 0.00931 0.00741 0.00376
275.99982 0.00994 0.00740 0.00719 0.00529 0.00529 0.00378
276.00950 0.00233 0.00296 0.00465 0.00508 0.00275 0.00380
276.01918 0.00849 0.00679 0.00785 0.00531 0.00913 0.00381
276.02882 0.00725 0.00682 0.00405 0.00640 0.00661 0.00390
276.03850 0.00746 0.00575 0.00298 0.00746 0.00490 0.00391
276.04818 0.00402 0.00720 0.00529 0.00423 0.00466 0.00384
276.05786 0.00526 0.00231 0.00378 0.00294 0.00315 0.00388
276.06753 0.00527 0.00379 0.00232 0.00232 0.00463 0.00386
276.07721 0.00084 0.00147 0.00548 0.00337 0.00442 0.00389
276.08686 0.00105 0.00188 0.00272 0.00355 0.00481 0.00386
276.09653 0.00664 0.00705 0.00892 0.00602 0.00726 0.00381
276.10622 0.00726 0.00415 0.00560 0.00663 0.00643 0.00385
276.11589 0.00416 0.00208 0.00395 0.00291 0.00436 0.00390
276.12556 0.00249 0.00374 0.00270 0.00519 0.00498 0.00396
276.13525 0.00583 0.00750 0.00666 0.00521 0.00375 0.00408
276.14489 0.00439 0.00565 0.00376 0.00439 0.00523 0.00402
276.15457 0.00439 0.00397 0.00690 0.00586 0.00272 0.00395
276.16425 0.00667 0.00500 0.00542 0.00688 0.00521 0.00393
276.17392 0.00669 0.00606 0.00606 0.00585 0.00689 0.00402
276.18357 0.00398 0.00021 0.00251 0.00230 0.00335 0.00402
276.19325 0.00211 0.00190 0.00211 0.00295 0.00295 0.00408
276.20293 0.00695 0.00442 0.00358 0.00821 0.00695 0.00412
276.21260 0.00378 0.00714 0.00882 0.00672 0.00903 0.00412
276.22225 0.00421 0.00589 0.00463 0.00358 0.00337 0.00411
276.23193 0.00314 0.00418 0.00670 0.00690 0.00649 0.00404
276.24161 0.00836 0.00668 0.00543 0.00397 0.00773 0.00407
276.25129 0.00714 0.00420 0.00357 0.00546 0.00525 0.00416
276.26093 0.00905 0.00547 0.00505 0.00652 0.00715 0.00417
276.27061 0.00294 0.00084 0.00609 0.00294 0.00546 0.00418
276.28029 0.00964 0.00482 0.00775 0.00755 0.00922 0.00422
276.28996 0.00314 0.00482 0.00398 0.00398 0.00293 0.00424
276.29962 0.00293 0.00063 0.00084 0.00147 0.00356 0.00403
276.30929 0.00460 0.00627 0.00480 0.00585 0.00501 0.00417
276.31896 0.00649 0.00607 0.00377 0.00565 0.00503 0.00422
276.32862 0.00569 0.00316 0.00400 0.00674 0.00400 0.00424
276.33829 0.00803 0.00803 0.00719 0.00486 0.00550 0.00429
276.34797 0.00720 0.00339 0.00424 0.00551 0.00678 0.00439
276.35762 0.00676 0.00507 0.00338 0.00528 0.00612 0.00434
276.36729 0.00507 0.00422 0.00465 0.00338 0.00380 0.00441
276.37697 0.00296 0.00254 0.00190 0.00127 0.00148 0.00438
276.38662 0.00463 0.00569 0.00506 0.00611 0.00484 0.00440
276.39629 0.00462 0.00168 0.00462 0.00567 0.00609 0.00439
276.40597 0.00649 0.00628 0.00607 0.00607 0.00565 0.00443
276.41562 0.00523 0.00606 0.00690 0.00481 0.00523 0.00447
276.42530 0.00167 0.00376 0.00230 0.00167 0.00418 0.00449
276.43497 0.00355 0.00084 0.00042 0.00084 0.00230 0.00446
276.44462 0.00796 0.00524 0.00587 0.00650 0.00754 0.00449
276.45430 0.00462 0.00546 0.00671 0.00441 0.00336 0.00445
276.46397 0.00761 0.00655 0.00571 0.00528 0.00718 0.00452
276.47363 0.00637 0.00361 0.00722 0.00785 0.00764 0.00458
276.48330 0.00490 0.00426 0.00554 0.00767 0.00767 0.00469
276.49294 0.00771 0.00964 0.00793 0.00686 0.00664 0.00470
276.50263 0.00467 0.00297 0.00446 0.00658 0.00339 0.00468
276.51230 0.00105 0.00295 0.00000 0.00253 0.00042 0.00465
276.52194 0.00717 0.00843 0.00653 0.00632 0.00696 0.00464
276.53163 0.00615 0.00551 0.00403 0.00509 0.00466 0.00470
276.54127 0.00619 0.00534 0.00598 0.00769 0.00598 0.00474
276.55095 0.00278 0.00256 0.00812 0.00406 0.00449 0.00478
276.56063 0.00662 0.00555 0.00448 0.00448 0.00384 0.00482
276.57027 0.00170 0.00127 0.00212 0.00170 0.00510 0.00482
276.57996 0.00675 0.00590 0.00885 0.00801 0.01012 0.00473
276.58960 0.00398 0.00209 0.00167 0.00251 0.00272 0.00475
276.59928 0.00689 0.00564 0.00438 0.00292 0.00522 0.00479
276.60893 0.00544 0.00669 0.00878 0.00627 0.00795 0.00478
276.61860 0.00650 0.00461 0.00629 0.00482 0.00608 0.00485
276.62825 0.00648 0.00439 0.00418 0.00376 0.00648 0.00489
276.63793 0.00377 0.00544 0.00565 0.00460 0.00523 0.00491
276.64757 0.00502 0.00670 0.00377 0.00377 0.00565 0.00489
276.65725 0.00564 0.00313 0.00564 0.00627 0.00355 0.00493
276.66690 0.00481 0.00397 0.00418 0.00501 0.00460 0.00493
276.67658 0.00753 0.00544 0.00648 0.00648 0.00627 0.00496
276.68622 0.00482 0.00420 0.00482 0.00713 0.00441 0.00496
276.69590 0.00527 0.00126 0.00084 0.00190 0.00527 0.00500
276.70555 0.00551 0.00360 0.00191 0.00593 0.00360 0.00498
276.71522 0.00595 0.00489 0.00595 0.00467 0.00510 0.00520
276.72488 0.00680 0.00595 0.00488 0.00488 0.00573 0.00519
276.73455 0.00463 0.00421 0.00232 0.00400 0.00463 0.00516
276.74419 0.00627 0.00815 0.00627 0.00648 0.00439 0.00510
276.75388 0.00416 0.00583 0.00479 0.00479 0.00562 0.00511
276.76352 0.00625 0.00417 0.00479 0.00354 0.00438 0.00518
276.77319 0.00314 0.00545 0.00419 0.00650 0.00377 0.00524
276.78285 0.00694 0.00673 0.00673 0.00526 0.00799 0.00532
276.79252 0.00524 0.00712 0.00649 0.00670 0.00670 0.00530
276.80217 0.00686 0.00395 0.00623 0.00436 0.00727 0.00526
276.81185 0.00580 0.00642 0.00869 0.00538 0.00538 0.00525
276.82149 0.00678 0.00739 0.00698 0.00780 0.00863 0.00524
276.83114 0.00697 0.00758 0.00451 0.00840 0.00717 0.00529
276.84082 0.00452 0.00472 0.00287 0.00267 0.00513 0.00535
276.85046 0.00578 0.00434 0.00475 0.00496 0.00434 0.00541
276.86014 0.00910 0.00745 0.00683 0.00621 0.00931 0.00546
276.86979 0.00725 0.00518 0.00455 0.00600 0.00455 0.00545
276.87947 0.00599 0.00599 0.00661 0.00496 0.00620 0.00544
276.88911 0.00598 0.00495 0.00330 0.00392 0.00577 0.00543
276.89876 0.00762 0.00926 0.00597 0.00926 0.00494 0.00549
276.90844 0.00556 0.00515 0.00535 0.00494 0.00576 0.00552
276.91809 0.00558 0.00475 0.00269 0.00703 0.00331 0.00560
276.92773 0.00601 0.00601 0.00642 0.00539 0.00497 0.00565
276.93741 0.00353 0.00436 0.00685 0.00208 0.00665 0.00570
276.94706 0.00686 0.00437 0.00561 0.00499 0.00707 0.00570
276.95674 0.00770 0.00354 0.00604 0.00645 0.00729 0.00570
276.96638 0.00563 0.00542 0.00313 0.00438 0.00542 0.00574
276.97603 0.00895 0.00875 0.00750 0.00771 0.00771 0.00582
276.98571 0.00604 0.00562 0.00500 0.00541 0.00521 0.00582
276.99535 0.00376 0.00418 0.00251 0.00522 0.00230 0.00593
277.00500 0.00837 0.00941 0.00753 0.00711 0.00857 0.00591
277.01468 0.00774 0.00732 0.00774 0.00670 0.00879 0.00593
277.02432 0.00458 0.00417 0.00646 0.00375 0.00625 0.00594
277.03398 0.01081 0.00832 0.00977 0.01060 0.01102 0.00592
277.04365 0.00930 0.00723 0.00641 0.00723 0.00537 0.00596
277.05329 0.00701 0.00784 0.00433 0.00433 0.00412 0.00606
277.06295 0.00827 0.00909 0.00599 0.00765 0.00682 0.00614
277.07259 0.01096 0.00951 0.01158 0.00724 0.00806 0.00615
277.08226 0.00850 0.00975 0.00746 0.01078 0.00560 0.00617
277.09192 0.00795 0.00816 0.00565 0.00816 0.00753 0.00618
277.10156 0.01054 0.01054 0.00738 0.01138 0.00632 0.00631
277.11124 0.00701 0.00488 0.00488 0.00616 0.00871 0.00637
277.12089 0.00616 0.00552 0.00701 0.00956 0.00616 0.00647
277.13053 0.00788 0.00575 0.00809 0.00681 0.00639 0.00654
277.14018 0.00620 0.00790 0.00427 0.00534 0.00726 0.00659
277.14986 0.00604 0.00733 0.00841 0.00690 0.00733 0.00672
277.15950 0.00517 0.00668 0.00711 0.00797 0.00711 0.00669
277.16915 0.00839 0.00839 0.00796 0.00860 0.00817 0.00665
277.17880 0.00625 0.00625 0.00603 0.00366 0.00538 0.00668
277.18848 0.00882 0.00452 0.00646 0.00775 0.00882 0.00673
277.19812 0.00734 0.00669 0.00540 0.00993 0.00583 0.00685
277.20777 0.00844 0.00584 0.00757 0.01082 0.00411 0.00697
277.21742 0.00692 0.00843 0.00778 0.00843 0.00648 0.00698
277.22710 0.00691 0.00755 0.00669 0.00712 0.00626 0.00698
277.23674 0.00642 0.00514 0.00814 0.01006 0.00728 0.00695
277.24639 0.00849 0.00977 0.00722 0.01083 0.00828 0.00694
277.25604 0.01119 0.00992 0.00718 0.00760 0.00866 0.00694
277.26568 0.00890 0.00657 0.00890 0.00848 0.00848 0.00707
277.27536 0.00767 0.00661 0.00746 0.00810 0.00576 0.00717
277.28501 0.00532 0.00532 0.00404 0.00660 0.00617 0.00730
277.29466 0.00983 0.01025 0.00790 0.00769 0.00940 0.00733
277.30430 0.00769 0.00748 0.00598 0.00833 0.00705 0.00735
277.31395 0.01003 0.00832 0.00576 0.00725 0.00939 0.00732
277.32360 0.01065 0.01001 0.01043 0.01150 0.01043 0.00731
277.33327 0.00937 0.00788 0.00639 0.00788 0.00703 0.00740
277.34292 0.01024 0.00683 0.00896 0.00896 0.00704 0.00748
277.35257 0.00687 0.00430 0.00558 0.00687 0.00730 0.00764
277.36221 0.00927 0.00690 0.00496 0.00582 0.00754 0.00773
277.37186 0.00947 0.00861 0.01033 0.01227 0.00861 0.00774
277.38151 0.01227 0.01076 0.01141 0.01399 0.01270 0.00771
277.39115 0.00751 0.00558 0.00879 0.00493 0.00729 0.00775
277.40084 0.00660 0.00617 0.00830 0.00979 0.00936 0.00775
277.41048 0.00951 0.00761 0.00549 0.00676 0.00824 0.00784
277.42012 0.01021 0.00808 0.00808 0.00829 0.00744 0.00799
277.42978 0.00941 0.01006 0.00834 0.00749 0.00727 0.00814
277.43942 0.00919 0.01047 0.01004 0.01047 0.00919 0.00811
277.44906 0.00834 0.00919 0.01026 0.00962 0.01197 0.00809
277.45872 0.00770 0.00663 0.00685 0.00663 0.00621 0.00814
277.46836 0.01197 0.01026 0.01176 0.01133 0.00876 0.00815
277.47800 0.00893 0.00510 0.00574 0.00702 0.01021 0.00826
277.48766 0.00803 0.00676 0.00571 0.00782 0.00719 0.00839
277.49730 0.00932 0.00953 0.00572 0.00868 0.01016 0.00849
277.50697 0.01062 0.00913 0.01020 0.01041 0.01062 0.00857
277.51663 0.00958 0.00915 0.01022 0.00873 0.00873 0.00860
277.52627 0.00746 0.00809 0.00660 0.01001 0.00639 0.00862
277.53593 0.00723 0.00957 0.00659 0.00936 0.00872 0.00857
277.54557 0.01169 0.01084 0.00871 0.01169 0.01042 0.00871
277.55521 0.01106 0.00999 0.01127 0.00978 0.01297 0.00883
277.56487 0.01128 0.00937 0.00766 0.00979 0.01043 0.00897
277.57451 0.01263 0.01519 0.01198 0.01498 0.01519 0.00909
277.58415 0.01092 0.01157 0.01007 0.01135 0.01157 0.00921
277.59381 0.01178 0.01263 0.00878 0.00921 0.01413 0.00921
277.60345 0.00961 0.00705 0.01004 0.01110 0.00876 0.00919
277.61309 0.01087 0.01002 0.00853 0.00917 0.01130 0.00925
277.62275 0.00893 0.01063 0.01105 0.01041 0.01041 0.00935
277.63239 0.01081 0.01420 0.01081 0.01250 0.01123 0.00949
277.64203 0.01104 0.00743 0.00870 0.00764 0.00786 0.00968
277.65169 0.00914 0.00978 0.01000 0.00936 0.01021 0.00974
277.66133 0.00959 0.00959 0.00852 0.01001 0.00980 0.00974
277.67098 0.00933 0.00679 0.00785 0.01209 0.01039 0.00971
277.68063 0.00760 0.00845 0.00845 0.00908 0.00655 0.00975
277.69027 0.01161 0.00845 0.00908 0.00929 0.01119 0.00980
277.69992 0.00862 0.01031 0.00904 0.01031 0.00968 0.00997
277.70957 0.01171 0.01171 0.01380 0.00941 0.01025 0.01020
277.71921 0.01271 0.01125 0.01229 0.01459 0.01271 0.01030
277.72886 0.01312 0.01312 0.01333 0.01333 0.01416 0.01027
277.73851 0.00957 0.00874 0.01041 0.00874 0.00937 0.01030
277.74812 0.01376 0.01439 0.01272 0.01272 0.01668 0.01028
277.75777 0.01155 0.01029 0.01260 0.01092 0.01344 0.01043
277.76742 0.00968 0.00779 0.01031 0.01200 0.00947 0.01061
277.77706 0.01265 0.01012 0.01349 0.01286 0.01180 0.01089
277.78671 0.00962 0.01004 0.00900 0.00795 0.01109 0.01106
277.79636 0.01185 0.01414 0.01310 0.01330 0.01143 0.01113
277.80600 0.00745 0.00972 0.00951 0.00662 0.00765 0.01113
277.81565 0.01073 0.01093 0.00990 0.01238 0.01052 0.01111
277.82530 0.01010 0.01443 0.01196 0.01402 0.01278 0.01115
277.83495 0.01116 0.01178 0.01260 0.01302 0.01343 0.01130
277.84460 0.01162 0.01079 0.01037 0.01058 0.01079 0.01156
277.85421 0.01119 0.00912 0.00912 0.00995 0.00974 0.01182
277.86386 0.01077 0.01098 0.01140 0.00953 0.01181 0.01197
277.87351 0.01490 0.01428 0.01366 0.01655 0.01386 0.01201
277.88315 0.01385 0.01488 0.01323 0.01364 0.01364 0.01194
277.89280 0.01343 0.01157 0.01177 0.01384 0.01570 0.01193
277.90245 0.01535 0.01058 0.01266 0.00996 0.01245 0.01210
277.91209 0.01250 0.01312 0.01479 0.01083 0.01208 0.01244
277.92171 0.01544 0.01231 0.01126 0.01398 0.01293 0.01279
277.93136 0.01202 0.01243 0.01326 0.01533 0.01596 0.01295
277.94100 0.01272 0.01333 0.01354 0.01354 0.01477 0.01309
277.95065 0.01514 0.01514 0.01637 0.01616 0.01494 0.01315
277.96030 0.01226 0.01287 0.01247 0.01267 0.01431 0.01307
277.96994 0.01457 0.01170 0.01293 0.01170 0.01170 0.01314
277.97956 0.01539 0.01518 0.01703 0.01641 0.01518 0.01332
277.98921 0.01787 0.01643 0.01541 0.01643 0.01664 0.01364
277.99885 0.01287 0.01471 0.01512 0.01164 0.01512 0.01391
278.00850 0.01489 0.01448 0.01387 0.01734 0.01571 0.01420
278.01815 0.01479 0.01499 0.01499 0.01641 0.01520 0.01453
278.02776 0.01557 0.01517 0.01638 0.01780 0.01598 0.01429
278.03741 0.01251 0.01432 0.01251 0.01372 0.01453 0.01431
278.04706 0.01958 0.02038 0.01917 0.02119 0.01796 0.01447
278.05671 0.01595 0.01635 0.01635 0.01535 0.01373 0.01469
278.06632 0.01475 0.01576 0.01394 0.01677 0.01394 0.01517
278.07597 0.01882 0.01740 0.01639 0.01963 0.01781 0.01554
278.08562 0.01538 0.01598 0.01841 0.01841 0.01659 0.01577
278.09526 0.01698 0.01941 0.01637 0.01900 0.01819 0.01583
278.10488 0.01461 0.01522 0.01502 0.01522 0.01543 0.01585
278.11453 0.01382 0.01524 0.01605 0.01605 0.01585 0.01597
278.12417 0.01646 0.01503 0.01585 0.01747 0.01666 0.01621
278.13382 0.01780 0.01759 0.01962 0.02083 0.02002 0.01660
278.14344 0.01804 0.01743 0.01987 0.02068 0.01905 0.01713
278.15309 0.01751 0.01445 0.01506 0.01588 0.01751 0.01756
278.16273 0.01972 0.01952 0.01952 0.02178 0.02075 0.01788
278.17235 0.01853 0.02224 0.02142 0.01977 0.01874 0.01792
278.18200 0.01744 0.01662 0.01744 0.01662 0.01949 0.01791
278.19164 0.01799 0.01799 0.02106 0.01922 0.02065 0.01806
278.20126 0.01791 0.01873 0.01873 0.01730 0.01832 0.01839
278.21091 0.01913 0.02076 0.02219 0.02198 0.02015 0.01894
278.22055 0.01982 0.02084 0.01961 0.02105 0.02023 0.01948
278.23020 0.02188 0.02065 0.02331 0.02044 0.01942 0.01996
278.23982 0.01998 0.02141 0.02243 0.02304 0.02426 0.02006
278.24946 0.01786 0.01948 0.01948 0.01887 0.01907 0.02011
278.25908 0.02058 0.01834 0.02099 0.02079 0.02120 0.02040
278.26873 0.02373 0.02130 0.02191 0.02454 0.02333 0.02044
278.27837 0.02413 0.02271 0.02514 0.02433 0.02453 0.02098
278.28799 0.02151 0.02293 0.02232 0.02455 0.02394 0.02170
278.29764 0.02029 0.02313 0.02293 0.02232 0.02273 0.02233
278.30728 0.02194 0.02438 0.02519 0.02499 0.02580 0.02267
278.31690 0.02530 0.02489 0.02673 0.02652 0.02408 0.02273
278.32655 0.02423 0.02239 0.02524 0.02402 0.02504 0.02284
278.33619 0.02518 0.02518 0.02804 0.02456 0.02620 0.02311
278.34581 0.02633 0.02571 0.02571 0.02695 0.02551 0.02376
278.35546 0.02213 0.02233 0.02336 0.02356 0.02438 0.02432
278.36507 0.02742 0.02721 0.02803 0.02967 0.02680 0.02518
278.37472 0.02421 0.02585 0.02954 0.02647 0.02708 0.02581
278.38437 0.02443 0.02525 0.02669 0.02751 0.02628 0.02602
278.39398 0.02763 0.02886 0.03278 0.02660 0.02989 0.02614
278.40363 0.02729 0.02771 0.02647 0.02854 0.02874 0.02633
278.41325 0.02931 0.02807 0.03015 0.03056 0.03098 0.02682
278.42289 0.02758 0.02696 0.02905 0.03009 0.02905 0.02768
278.43252 0.03013 0.03013 0.03285 0.03411 0.03202 0.02880
278.44216 0.02948 0.03032 0.03011 0.02969 0.03073 0.02962
278.45180 0.03089 0.02943 0.03276 0.03318 0.03297 0.03008
278.46143 0.02884 0.03072 0.03302 0.03051 0.03176 0.03026
278.47107 0.02903 0.02819 0.02903 0.03258 0.02944 0.03034
278.48068 0.03108 0.03233 0.03359 0.03400 0.03672 0.03066
278.49034 0.03444 0.03277 0.03506 0.03465 0.03339 0.03144
278.49995 0.03152 0.02901 0.03339 0.03193 0.03360 0.03245
278.50959 0.03172 0.03422 0.03359 0.03151 0.03506 0.03368
278.51922 0.03115 0.03638 0.03638 0.03554 0.03701 0.03463
278.52886 0.03637 0.03470 0.03908 0.03553 0.04013 0.03500
278.53847 0.03511 0.03386 0.03595 0.03553 0.03678 0.03510
278.54813 0.03472 0.03410 0.03660 0.03285 0.03618 0.03523
278.55774 0.03965 0.03799 0.03758 0.03945 0.03986 0.03584
278.56738 0.03613 0.03862 0.04132 0.03904 0.04111 0.03692
278.57701 0.04096 0.04054 0.04241 0.04220 0.04283 0.03836
278.58665 0.03866 0.03804 0.04032 0.04321 0.04156 0.03967
278.59626 0.04030 0.04277 0.04256 0.03968 0.04483 0.04054
278.60592 0.04050 0.04133 0.04153 0.04482 0.04482 0.04079
278.61553 0.04094 0.04238 0.04155 0.04443 0.04484 0.04099
278.62517 0.03928 0.04175 0.04216 0.04154 0.04092 0.04128
278.63480 0.04479 0.04396 0.04891 0.04252 0.04582 0.04241
278.64441 0.04662 0.04620 0.04786 0.04807 0.04620 0.04384
278.65405 0.04417 0.04396 0.04832 0.04811 0.05019 0.04562
278.66368 0.04718 0.04759 0.05131 0.05090 0.05090 0.04728
278.67332 0.04392 0.04741 0.04885 0.04864 0.04823 0.04804
278.68293 0.05111 0.04886 0.05316 0.05336 0.05438 0.04818
278.69259 0.04974 0.05056 0.05302 0.05077 0.05322 0.04864
278.70220 0.05180 0.05200 0.05384 0.05200 0.05160 0.04929
278.71182 0.05173 0.05233 0.05557 0.05254 0.05698 0.05063
278.72147 0.05240 0.05160 0.05662 0.05421 0.05742 0.05242
278.73108 0.05360 0.05481 0.05985 0.05803 0.06327 0.05479
278.74073 0.05348 0.05632 0.05956 0.05672 0.05834 0.05620
278.75034 0.05518 0.06226 0.06388 0.06125 0.06549 0.05723
278.75996 0.06029 0.06089 0.06251 0.06150 0.06190 0.05830
278.76961 0.05825 0.05805 0.06169 0.06088 0.06230 0.05969
278.77922 0.06744 0.06321 0.06885 0.06764 0.06966 0.06035
278.78884 0.06490 0.06268 0.06994 0.06631 0.06832 0.06080
278.79849 0.06465 0.06687 0.07150 0.06667 0.07392 0.06117
278.80810 0.06488 0.06709 0.07536 0.07173 0.07495 0.06153
278.81775 0.06324 0.06988 0.07270 0.07270 0.07572 0.06178
278.82737 0.06816 0.07217 0.07798 0.07878 0.07979 0.06159
278.83698 0.07262 0.07422 0.08245 0.07603 0.07984 0.06180
278.84663 0.07216 0.07478 0.08267 0.07822 0.08388 0.06269
278.85625 0.08037 0.07835 0.08584 0.08280 0.08543 0.06294
278.86586 0.08157 0.08258 0.09005 0.08480 0.08763 0.06285
278.87551 0.07837 0.08221 0.09153 0.08768 0.09193 0.06320
278.88513 0.08171 0.08723 0.09438 0.09275 0.09254 0.06382
278.89474 0.08069 0.08800 0.09572 0.09471 0.09410 0.06364
278.90436 0.08469 0.09294 0.10139 0.09737 0.10039 0.06316
278.91401 0.09211 0.09656 0.10709 0.09939 0.10425 0.06301
278.92362 0.09541 0.09965 0.10771 0.10186 0.10892 0.06343
278.93324 0.10057 0.09996 0.11424 0.10459 0.11002 0.06320
278.94289 0.10324 0.10565 0.11775 0.11372 0.11553 0.06361
278.95250 0.10508 0.11195 0.12408 0.11539 0.12226 0.06372
278.96212 0.10624 0.11438 0.13046 0.11987 0.12415 0.06424
278.97174 0.11249 0.12065 0.13573 0.12819 0.13593 0.06438
278.98138 0.11407 0.12425 0.14096 0.12874 0.13301 0.06455
278.99100 0.12152 0.12745 0.14644 0.13194 0.13909 0.06472
279.00062 0.13016 0.13200 0.15094 0.13750 0.14483 0.06419
279.01023 0.13044 0.13574 0.15873 0.14428 0.14917 0.06463
279.01988 0.13973 0.14682 0.16646 0.15168 0.16099 0.06400
279.02950 0.14109 0.15399 0.17051 0.15580 0.16608 0.06409
279.03911 0.14275 0.15743 0.17553 0.16427 0.17271 0.06394
279.04873 0.14940 0.16265 0.18555 0.16808 0.17912 0.06407
279.05838 0.15539 0.16948 0.19424 0.17511 0.18920 0.06417
279.06799 0.16846 0.17493 0.20219 0.18442 0.19674 0.06438
279.07761 0.17909 0.18986 0.21361 0.19838 0.21016 0.06482
279.08723 0.18631 0.19487 0.22055 0.20364 0.21362 0.06493
279.09684 0.19072 0.20173 0.23576 0.21599 0.22781 0.06507
279.10649 0.18887 0.21498 0.24109 0.22069 0.23762 0.06518
279.11611 0.19980 0.22264 0.25363 0.23120 0.24425 0.06528
279.12572 0.21109 0.23362 0.27178 0.24438 0.25879 0.06492
279.13534 0.22722 0.24417 0.27323 0.25385 0.27080 0.06456
279.14496 0.24358 0.25352 0.29286 0.26325 0.28252 0.06496
279.15457 0.25343 0.26646 0.30636 0.28132 0.29435 0.06506
279.16422 0.25893 0.27814 0.32167 0.29122 0.30675 0.06543
279.17383 0.26656 0.29128 0.33826 0.30333 0.32376 0.06501
279.18345 0.28072 0.30352 0.35502 0.31777 0.33935 0.06528
279.19307 0.29046 0.31902 0.36864 0.33097 0.35588 0.06494
279.20268 0.30550 0.33384 0.38629 0.34911 0.36820 0.06433
279.21230 0.32316 0.33669 0.39878 0.35241 0.37848 0.06388
279.22192 0.35167 0.35824 0.41897 0.37636 0.40085 0.06332
279.23156 0.35611 0.37747 0.44035 0.39504 0.42458 0.06400
279.24119 0.36465 0.39030 0.46128 0.41455 0.43622 0.06380
279.25080 0.37633 0.41049 0.48456 0.42756 0.46649 0.06379
279.26041 0.38678 0.43221 0.50738 0.45363 0.48378 0.06373
279.27004 0.41167 0.45296 0.52779 0.47102 0.50596 0.06332
279.27965 0.44100 0.47382 0.55399 0.50107 0.52932 0.06384
279.28926 0.47285 0.49580 0.57948 0.52013 0.55792 0.06358
279.29888 0.50601 0.52189 0.60987 0.54314 0.58425 0.06379
279.30850 0.51774 0.54950 0.64418 0.56927 0.61821 0.06421
279.31811 0.52418 0.57185 0.67881 0.60650 0.63995 0.06450
279.32776 0.54108 0.60739 0.70795 0.63283 0.68271 0.06411
279.33738 0.57559 0.63128 0.74949 0.66674 0.71122 0.06406
279.34699 0.61226 0.66662 0.79260 0.69752 0.74947 0.06451
279.35661 0.65762 0.69828 0.82267 0.72878 0.78799 0.06394
279.36623 0.70380 0.73316 0.87062 0.76172 0.82758 0.06383
279.37584 0.73707 0.77243 0.91704 0.80227 0.87516 0.06357
279.38546 0.75553 0.81281 0.96880 0.84988 0.91984 0.06384
279.39508 0.77029 0.85718 1.02440 0.89953 0.97668 0.06402
279.40469 0.80555 0.90664 1.08733 0.95181 1.02684 0.06414
279.41431 0.84997 0.95377 1.14599 0.99877 1.08205 0.06366
279.42392 0.92165 1.00240 1.20771 1.04346 1.14131 0.06328
279.43354 1.00441 1.05684 1.28319 1.10536 1.20552 0.06294
279.44316 1.07169 1.11806 1.36533 1.16210 1.28524 0.06272
279.45277 1.11131 1.18260 1.44503 1.24049 1.35568 0.06254
279.46239 1.12900 1.25812 1.54052 1.30272 1.43632 0.06285
279.47201 1.17188 1.33955 1.64804 1.39185 1.54502 0.06291
279.48162 1.23066 1.41010 1.76156 1.47891 1.63861 0.06305
279.49124 1.33734 1.50007 1.88768 1.58163 1.74573 0.06319
279.50086 1.48414 1.61021 2.02500 1.69222 1.87907 0.06342
279.51047 1.60897 1.71379 2.17241 1.79750 2.01048 0.06304
279.52010 1.71086 1.83305 2.34078 1.92064 2.15974 0.06306
279.52971 1.77349 1.96690 2.52298 2.06685 2.32152 0.06338
279.53932 1.82010 2.10692 2.72641 2.21538 2.50003 0.06349
279.54894 1.92170 2.26979 2.95463 2.38145 2.69272 0.06314
279.55856 2.07481 2.44496 3.19309 2.56455 2.92019 0.06322
279.56814 2.30905 2.64110 3.45879 2.77731 3.15665 0.06305
279.57776 2.59934 2.84490 3.76757 2.98567 3.43000 0.06344
279.58738 2.83804 3.08363 4.10934 3.23993 3.71967 0.06367
279.59699 2.98960 3.34262 4.48587 3.50841 4.06362 0.06355
279.60661 3.10383 3.63335 4.90877 3.81130 4.42477 0.06343
279.61622 3.24400 3.93593 5.34824 4.14720 4.82786 0.06390
279.62584 3.52487 4.32598 5.89954 4.53248 5.28859 0.06419
279.63546 3.92756 4.72176 6.45091 4.94782 5.79186 0.06441
279.64507 4.46518 5.14621 7.07857 5.41767 6.34754 0.06401
279.65469 5.00420 5.62387 7.75027 5.93173 6.93767 0.06371
279.66431 5.41245 6.17910 8.53675 6.50002 7.65118 0.06329
279.67389 5.68826 6.75029 9.30960 7.09852 8.36305 0.06305
279.68351 6.00434 7.40463 10.20815 7.78884 9.20576 0.06297
279.69313 6.47533 8.10787 11.15988 8.54342 10.07687 0.06288
279.70274 7.14868 8.86416 12.08630 9.32829 10.96681 0.06297
279.71235 8.15664 9.73421 13.18081 10.24199 12.06271 0.06310
279.72198 9.19187 10.61263 14.19935 11.13657 13.03878 0.06350
279.73159 10.09084 11.55065 15.30378 12.14973 14.17311 0.06380
279.74117 10.75991 12.57514 16.40206 13.20182 15.28945 0.06410
279.75080 11.24198 13.54086 17.32127 14.22953 16.33956 0.06374
279.76041 12.02240 14.67100 18.43740 15.37721 17.53697 0.06446
279.77003 13.02805 15.65552 19.28934 16.40973 18.52256 0.06446
279.77965 14.44124 16.75939 20.13220 17.56054 19.55704 0.06427
279.78926 15.87228 17.74264 20.82284 18.54079 20.39467 0.06415
279.79885 17.01669 18.62182 21.42246 19.43471 21.16295 0.06423
279.80846 17.78156 19.45167 21.86325 20.26530 21.81820 0.06437
279.81808 18.42654 20.22477 22.26369 21.00914 22.36915 0.06424
279.82770 19.06946 20.83996 22.48257 21.64201 22.82095 0.06454
279.83728 19.86316 21.39004 22.67225 22.18731 23.12926 0.06392
279.84690 20.78501 21.76388 22.70621 22.51555 23.27600 0.06468
279.85652 21.56790 22.05535 22.70132 22.85170 23.40403 0.06388
279.86613 22.08773 22.27797 22.62185 23.00114 23.36725 0.06367
279.87574 22.37784 22.37156 22.47339 23.06535 23.30354 0.06341
279.88534 22.67174 22.44213 22.32635 23.13860 23.23653 0.06338
279.89495 22.87943 22.35773 22.06769 23.00653 22.96971 0.06307
279.90456 23.08182 22.24442 21.82942 22.85369 22.76123 0.06303
279.91419 23.08703 22.07248 21.56275 22.66728 22.47932 0.06315
279.92377 23.01624 21.90958 21.29100 22.50088 22.24419 0.06347
279.93338 22.72672 21.66781 20.98444 22.21104 21.89730 0.06360
279.94301 22.48463 21.38661 20.65794 21.92963 21.55066 0.06352
279.95259 22.45904 21.13691 20.37516 21.63306 21.24095 0.06358
279.96220 22.57417 20.83014 20.04938 21.34545 20.92712 0.06390
279.97182 22.64991 20.52129 19.63482 21.01708 20.58215 0.06355
279.98144 22.43073 20.24894 19.26876 20.69996 20.19964 0.06439
279.99102 21.85782 19.91605 18.86092 20.36630 19.81032 0.06405
280.00064 21.07379 19.59356 18.47147 19.99321 19.46666 0.06379
280.01026 20.51549 19.26006 18.06812 19.67239 19.07564 0.06344
280.01985 20.30851 18.95803 17.62495 19.40311 18.68665 0.06324
280.02946 20.37067 18.58910 17.14328 19.00933 18.24242 0.06315
280.03907 20.48705 18.19084 16.60310 18.62911 17.78623 0.06339
280.04867 20.25151 17.73256 15.95993 18.13358 17.22068 0.06330
280.05828 19.54264 17.32172 15.38061 17.70458 16.74840 0.06326
280.06789 18.54848 16.88621 14.81197 17.29192 16.20495 0.06307
280.07749 17.58621 16.33283 14.12383 16.76252 15.60400 0.06265
280.08710 16.98955 15.85236 13.49088 16.28167 15.03836 0.06275
280.09671 16.66430 15.28042 12.76773 15.66804 14.33667 0.06229
280.10630 16.61242 14.66460 12.06603 15.09459 13.65527 0.06215
280.11592 16.33798 14.00728 11.34803 14.44936 12.97075 0.06226
280.12553 15.65573 13.37576 10.63341 13.80655 12.24464 0.06213
280.13512 14.48630 12.68841 9.93787 13.08577 11.54247 0.06214
280.14474 13.30158 12.01882 9.28631 12.43644 10.86601 0.06247
280.15432 12.26460 11.32420 8.62163 11.72797 10.17027 0.06242
280.16394 11.55360 10.66879 8.01034 11.06909 9.50290 0.06237
280.17355 11.20104 9.98192 7.39534 10.35514 8.81224 0.06229
280.18314 10.95094 9.36678 6.87571 9.71333 8.23754 0.06275
280.19276 10.40184 8.66108 6.28813 9.00412 7.58196 0.06197
280.20234 9.58810 8.12266 5.83872 8.42600 7.07432 0.06280
280.21195 8.50946 7.48681 5.35209 7.80462 6.50337 0.06238
280.22155 7.58867 6.93245 4.92031 7.23563 5.99546 0.06259
280.23116 6.89129 6.42394 4.54774 6.70929 5.54706 0.06310
280.24077 6.44585 5.91426 4.15773 6.16399 5.09731 0.06311
280.25037 6.27088 5.48108 3.83946 5.72055 4.71945 0.06329
280.25998 6.00999 5.03921 3.52423 5.23445 4.31634 0.06336
280.26957 5.58869 4.63919 3.24874 4.83579 3.98313 0.06316
280.27918 4.98962 4.27210 3.00022 4.48771 3.67404 0.06303
280.28877 4.37015 3.93445 2.76099 4.12237 3.38654 0.06256
280.29839 3.90239 3.62890 2.55211 3.80575 3.10935 0.06262
280.30797 3.55987 3.32516 2.35528 3.47607 2.86534 0.06220
280.31759 3.39936 3.08536 2.18459 3.23996 2.64783 0.06229
280.32718 3.30663 2.84099 2.01381 2.97468 2.44067 0.06194
280.33679 3.14759 2.61491 1.84954 2.73962 2.24839 0.06173
280.34637 2.88724 2.42725 1.73020 2.55191 2.09269 0.06212
280.35600 2.52333 2.23885 1.59850 2.33577 1.94029 0.06178
280.36558 2.23735 2.06570 1.47713 2.17136 1.80117 0.06186
280.37519 2.01049 1.92662 1.38068 2.00477 1.66947 0.06180
280.38478 1.88905 1.77925 1.27668 1.86298 1.53377 0.06171
280.39440 1.84559 1.64213 1.19537 1.72489 1.44077 0.06182
280.40398 1.80654 1.54071 1.11728 1.61549 1.33722 0.06201
280.41360 1.70217 1.43357 1.04263 1.48767 1.24317 0.06211
280.42319 1.53083 1.33097 0.96921 1.39810 1.16697 0.06227
280.43280 1.36093 1.23728 0.91880 1.30273 1.08424 0.06198
280.44239 1.23216 1.15746 0.85464 1.21281 1.02472 0.06179
280.45197 1.12464 1.07918 0.80066 1.13558 0.95220 0.06230
280.46159 1.08195 1.01047 0.75053 1.05517 0.89061 0.06259
280.47118 1.06974 0.95123 0.70414 0.99589 0.83716 0.06285
280.48079 1.03725 0.88926 0.66468 0.92670 0.78508 0.06242
280.49039 0.97305 0.83180 0.62506 0.86823 0.73551 0.06294
280.50000 0.86963 0.77807 0.58413 0.81129 0.68535 0.06281
280.50958 0.77852 0.73779 0.55948 0.77209 0.65516 0.06334
280.51917 0.71703 0.69297 0.52530 0.72349 0.62136 0.06356
280.52879 0.67452 0.65492 0.49501 0.68255 0.58183 0.06366
280.53837 0.65877 0.61681 0.46985 0.64518 0.55042 0.06391
280.54799 0.65529 0.58674 0.44380 0.60563 0.51878 0.06332
280.55757 0.64589 0.55102 0.42323 0.56902 0.49255 0.06278
280.56716 0.59391 0.51298 0.39845 0.54234 0.46141 0.06277
280.57678 0.53398 0.48803 0.38050 0.51525 0.43996 0.06277
280.58636 0.48541 0.46666 0.35860 0.48271 0.42085 0.06289
280.59595 0.44900 0.44046 0.34491 0.45735 0.39715 0.06313
280.60557 0.43391 0.41352 0.32281 0.43216 0.37428 0.06311
280.61515 0.43145 0.39644 0.31493 0.41239 0.35909 0.06320
280.62473 0.42967 0.37591 0.29683 0.38616 0.34033 0.06292
280.63436 0.41909 0.36056 0.28328 0.37529 0.32555 0.06214
280.64394 0.37842 0.33920 0.26937 0.35278 0.30802 0.06208
280.65352 0.34775 0.33054 0.25976 0.33914 0.29744 0.06142
280.66314 0.31920 0.30964 0.24706 0.32437 0.27844 0.06218
280.67273 0.29912 0.29040 0.23254 0.30614 0.26953 0.06171
280.68231 0.29205 0.28084 0.22593 0.29452 0.25253 0.06171
280.69193 0.29450 0.26882 0.21517 0.28328 0.24732 0.06187
280.70151 0.29538 0.25827 0.20897 0.26645 0.23391 0.06187
280.71110 0.28052 0.24508 0.19599 0.25152 0.22347 0.06165
280.72072 0.25959 0.23455 0.19147 0.24574 0.21519 0.06168
280.73030 0.23609 0.22481 0.18486 0.23475 0.20359 0.06216
280.73990 0.22192 0.21698 0.17389 0.21850 0.19895 0.06133
280.74948 0.21003 0.20565 0.16719 0.21555 0.19175 0.06190
280.75909 0.20687 0.19583 0.16116 0.20802 0.18192 0.06201
280.76868 0.20970 0.19065 0.15561 0.19636 0.17389 0.06189
280.77827 0.20587 0.17782 0.14539 0.19061 0.16809 0.06201
280.78785 0.19508 0.17200 0.14391 0.18412 0.16142 0.06243
280.79747 0.17965 0.17098 0.14075 0.17676 0.15828 0.06262
280.80705 0.16363 0.16016 0.13357 0.16845 0.14879 0.06262
280.81664 0.15795 0.15852 0.13366 0.16139 0.14571 0.06214
280.82623 0.15413 0.15240 0.12706 0.15893 0.13704 0.06230
280.83584 0.15721 0.14313 0.12075 0.15181 0.13464 0.06272
280.84542 0.15499 0.13745 0.11605 0.14574 0.12800 0.06269
280.85502 0.15298 0.13477 0.11464 0.14033 0.12518 0.06236
280.86460 0.14529 0.12980 0.10877 0.13305 0.12063 0.06210
280.87418 0.13453 0.12861 0.10625 0.13052 0.12039 0.06220
280.88381 0.12217 0.12178 0.10200 0.12812 0.11199 0.06249
280.89339 0.11612 0.11689 0.10002 0.11938 0.11133 0.06217
280.90297 0.11361 0.11381 0.09423 0.11649 0.10306 0.06244
280.91256 0.11558 0.11020 0.09000 0.11193 0.10000 0.06259
280.92215 0.12007 0.10793 0.09155 0.11101 0.10138 0.06268
280.93176 0.11708 0.10420 0.08959 0.10843 0.09593 0.06250
280.94135 0.10750 0.10173 0.08327 0.10097 0.09443 0.06254
280.95093 0.09833 0.09814 0.08288 0.10336 0.09080 0.06276
280.96053 0.09574 0.09671 0.08312 0.09943 0.08972 0.06308
280.97011 0.08683 0.08915 0.07658 0.09340 0.08760 0.06289
280.97969 0.09228 0.08727 0.07282 0.08958 0.08361 0.06268
280.98928 0.09274 0.08487 0.07066 0.08660 0.07661 0.06252
280.99890 0.09316 0.08322 0.06963 0.08398 0.07633 0.06214
281.00848 0.08919 0.08171 0.06751 0.08343 0.07538 0.06245
281.01807 0.08552 0.07860 0.06668 0.08264 0.07341 0.06203
281.02765 0.07686 0.07589 0.06405 0.07803 0.07143 0.06299
281.03724 0.07408 0.07350 0.06531 0.07447 0.06921 0.06337
281.04683 0.07376 0.07278 0.06042 0.07552 0.06768 0.06357
281.05641 0.07071 0.06895 0.05955 0.06973 0.06582 0.06318
281.06599 0.07356 0.06716 0.05842 0.07007 0.06347 0.06313
281.07559 0.07586 0.06599 0.05941 0.06870 0.06386 0.06283
281.08517 0.07407 0.06770 0.05883 0.06944 0.06385 0.06265
281.09478 0.06798 0.06236 0.05423 0.06643 0.06120 0.06274
281.10437 0.06386 0.05979 0.05513 0.06483 0.05940 0.06291
281.11396 0.05839 0.06112 0.05233 0.06190 0.05722 0.06342
281.12354 0.05642 0.05720 0.04981 0.05856 0.05584 0.06266
281.13313 0.05920 0.05548 0.04842 0.05646 0.05057 0.06354
281.14271 0.06032 0.05468 0.04787 0.05662 0.05487 0.06298
281.15230 0.05791 0.05462 0.04513 0.05327 0.05055 0.06250
281.16189 0.05662 0.05084 0.04468 0.05373 0.04892 0.06230
281.17147 0.05095 0.05172 0.04153 0.05306 0.04845 0.06186
281.18105 0.04936 0.05129 0.04452 0.05207 0.04936 0.06231
281.19065 0.04825 0.04652 0.04517 0.05074 0.04555 0.06165
281.20023 0.04772 0.05159 0.04193 0.04869 0.04463 0.06209
281.20982 0.04964 0.04868 0.04253 0.05003 0.04714 0.06171
281.21941 0.05201 0.04700 0.03911 0.04797 0.04219 0.06128
281.22899 0.04895 0.04568 0.04108 0.04760 0.04473 0.06113
281.23858 0.04482 0.04462 0.03869 0.04539 0.04252 0.06063
281.24816 0.04861 0.04400 0.03881 0.04573 0.04246 0.06046
281.25775 0.04741 0.04374 0.03854 0.04567 0.04355 0.05976
281.26734 0.04198 0.04275 0.03733 0.04275 0.04314 0.05570
281.27692 0.04190 0.03763 0.03550 0.04384 0.03899 0.04314
281.28650 0.04218 0.03736 0.03582 0.04314 0.03948 0.04045
281.29610 0.04362 0.03899 0.03455 0.03899 0.03687 0.03978
281.30568 0.03971 0.03739 0.03200 0.03816 0.03566 0.03977
281.31526 0.04057 0.03848 0.03162 0.04134 0.03772 0.03989
281.32485 0.03391 0.03448 0.03239 0.03694 0.03126 0.03946
281.33444 0.03502 0.03445 0.02859 0.03597 0.03408 0.03822
281.34402 0.03477 0.03458 0.03211 0.03648 0.03287 0.03643
281.35358 0.03545 0.03507 0.03164 0.03621 0.03278 0.03489
281.36316 0.03683 0.03398 0.02981 0.03455 0.03227 0.03385
281.37274 0.03727 0.03422 0.02814 0.03346 0.03175 0.03350
281.38234 0.03624 0.03318 0.02899 0.03242 0.03357 0.03387
281.39192 0.03117 0.03192 0.02720 0.02871 0.03022 0.03379
281.40150 0.03055 0.03168 0.02546 0.02961 0.03055 0.03338
281.41109 0.03012 0.03107 0.03012 0.03012 0.03164 0.03223
281.42068 0.02784 0.02917 0.02670 0.02956 0.02822 0.03076
281.43027 0.03228 0.02942 0.02598 0.03056 0.02903 0.02963
281.43985 0.03406 0.02848 0.02579 0.03060 0.02848 0.02920
281.44940 0.03135 0.02676 0.02523 0.03116 0.03097 0.02893
281.45900 0.03221 0.02992 0.02764 0.03069 0.03069 0.02910
281.46858 0.02964 0.02622 0.02622 0.02869 0.02489 0.02910
281.47816 0.02696 0.02867 0.02316 0.02582 0.02449 0.02852
281.48775 0.02624 0.02643 0.02241 0.02682 0.02643 0.02757
281.49734 0.02677 0.02677 0.02256 0.02849 0.02485 0.02639
281.50692 0.02846 0.02464 0.02197 0.02617 0.02483 0.02557
281.51648 0.02660 0.02545 0.02469 0.02986 0.02564 0.02516
281.52606 0.02768 0.02577 0.02138 0.02692 0.02252 0.02512
281.53565 0.02486 0.02447 0.02199 0.02677 0.02199 0.02532
281.54524 0.02552 0.02152 0.02095 0.02475 0.02190 0.02525
281.55482 0.02373 0.02258 0.02048 0.02392 0.02297 0.02474
281.56437 0.02571 0.02283 0.02245 0.02456 0.02149 0.02375
281.57397 0.02336 0.02182 0.01757 0.02124 0.02279 0.02279
281.58355 0.02286 0.02190 0.01979 0.02344 0.02113 0.02233
281.59313 0.02589 0.02416 0.01726 0.02493 0.02109 0.02224
281.60272 0.02635 0.02330 0.02177 0.02311 0.02349 0.02193
281.61228 0.02143 0.01952 0.01837 0.01971 0.02047 0.02220
281.62186 0.02281 0.02128 0.01881 0.02395 0.02319 0.02201
281.63145 0.02013 0.02032 0.01443 0.01994 0.01937 0.02144
281.64103 0.02009 0.02122 0.01819 0.02103 0.02066 0.02058
281.65060 0.01962 0.01943 0.01657 0.01924 0.01943 0.02001
281.66018 0.02073 0.01845 0.01978 0.01845 0.02168 0.01946
281.66976 0.02108 0.01782 0.01801 0.01935 0.01820 0.01947
281.67935 0.01967 0.01910 0.01601 0.01813 0.01832 0.01957
281.68890 0.02087 0.01855 0.02029 0.02144 0.02106 0.01966
281.69849 0.01801 0.01724 0.01472 0.01821 0.01608 0.01955
281.70808 0.02021 0.02196 0.01535 0.02137 0.01651 0.01902
281.71766 0.01732 0.01771 0.01829 0.01810 0.01674 0.01840
281.72721 0.02027 0.01735 0.01696 0.01696 0.01657 0.01786
281.73681 0.01686 0.01570 0.01473 0.01454 0.01648 0.01750
281.74639 0.01724 0.01201 0.01530 0.01433 0.01549 0.01741
281.75594 0.01456 0.01398 0.01106 0.01592 0.01281 0.01750
281.76553 0.01798 0.01642 0.01524 0.01446 0.01837 0.01763
281.77512 0.01931 0.01502 0.01521 0.01795 0.01424 0.01736
281.78467 0.01581 0.01503 0.01327 0.01737 0.01151 0.01689
281.79426 0.01515 0.01632 0.01651 0.01554 0.01360 0.01626
281.80384 0.01673 0.01404 0.01211 0.01423 0.01385 0.01580
281.81340 0.01765 0.01632 0.01613 0.01556 0.01613 0.01547
281.82299 0.01746 0.01575 0.01480 0.01841 0.01537 0.01551
281.83257 0.01714 0.01733 0.01371 0.01619 0.01600 0.01561
281.84212 0.01638 0.01486 0.01524 0.01334 0.01543 0.01565
281.85172 0.01166 0.01147 0.01242 0.01357 0.01204 0.01548
281.86130 0.01148 0.01320 0.01282 0.01416 0.01148 0.01504
281.87086 0.01332 0.01199 0.00742 0.01161 0.01390 0.01448
281.88044 0.01446 0.01446 0.01294 0.01580 0.01446 0.01415
281.89002 0.01391 0.01143 0.01181 0.01486 0.01200 0.01403
281.89959 0.01464 0.01388 0.01084 0.01712 0.01141 0.01411
281.90917 0.01608 0.01532 0.01455 0.01359 0.01493 0.01418
281.91872 0.01321 0.01225 0.01244 0.01225 0.01225 0.01402
281.92831 0.01406 0.01522 0.01368 0.01483 0.01638 0.01393
281.93790 0.01144 0.01027 0.01221 0.01105 0.01124 0.01362
281.94745 0.01348 0.02041 0.01290 0.01367 0.01155 0.01315
281.95704 0.01226 0.01667 0.01092 0.01245 0.01226 0.01285
281.96659 0.01253 0.01329 0.01215 0.01310 0.01215 0.01277
281.97618 0.01475 0.01267 0.01304 0.01456 0.01286 0.01276
281.98574 0.01270 0.01118 0.00948 0.01478 0.01213 0.01287
281.99532 0.01520 0.01482 0.01387 0.01558 0.01634 0.01279
282.00490 0.01031 0.01108 0.00936 0.01146 0.01051 0.01261
282.01446 0.01531 0.01225 0.01129 0.01454 0.01205 0.01226
282.02405 0.01537 0.01176 0.01271 0.01499 0.01461 0.01186
282.03360 0.01452 0.01264 0.01132 0.01358 0.01169 0.01163
282.04319 0.01332 0.01182 0.01050 0.01219 0.01276 0.01155
282.05274 0.01114 0.01077 0.01318 0.01096 0.01114 0.01154
282.06233 0.00992 0.01142 0.01142 0.01198 0.01123 0.01170
282.07189 0.01388 0.01388 0.01106 0.01088 0.01219 0.01159
282.08147 0.01460 0.01404 0.01329 0.01310 0.01104 0.01130
282.09103 0.01314 0.01258 0.00939 0.01258 0.01145 0.01109
282.10061 0.01012 0.00918 0.00937 0.00918 0.00937 0.01077
282.11017 0.00938 0.01013 0.00844 0.00882 0.01088 0.01064
282.11976 0.01192 0.01248 0.01267 0.01192 0.01043 0.01058
282.12931 0.01215 0.01047 0.00972 0.01159 0.00954 0.01072
282.13889 0.01237 0.00919 0.00956 0.00994 0.00881 0.01075
282.14846 0.01052 0.00958 0.01146 0.01240 0.00958 0.01070
282.15804 0.01039 0.01210 0.01096 0.01134 0.01021 0.01072
282.16759 0.01114 0.01095 0.00774 0.01000 0.00887 0.01016
282.17718 0.01077 0.00944 0.01020 0.01133 0.00756 0.00997
282.18674 0.01175 0.01308 0.00948 0.01005 0.00967 0.00991
282.19629 0.00992 0.01087 0.01030 0.00820 0.00897 0.01000
282.20588 0.00988 0.00988 0.00703 0.01177 0.00874 0.01000
282.21543 0.00991 0.01201 0.00934 0.01048 0.01048 0.01004
282.22501 0.00967 0.01005 0.01024 0.00948 0.00740 0.00988
282.23458 0.01178 0.01064 0.00855 0.01007 0.01102 0.00974
282.24416 0.00983 0.00964 0.01078 0.01172 0.00983 0.00944
282.25371 0.00813 0.00870 0.00832 0.00908 0.01059 0.00925
282.26327 0.00920 0.01070 0.00694 0.00920 0.00976 0.00912
282.27286 0.00839 0.00727 0.00708 0.00876 0.00708 0.00916
282.28241 0.00993 0.00937 0.00955 0.00974 0.00918 0.00925
282.29200 0.00882 0.00919 0.01051 0.00919 0.01088 0.00925
282.30155 0.00730 0.00617 0.00505 0.00599 0.00730 0.00910
282.31111 0.00976 0.01107 0.00882 0.00938 0.00994 0.00900
282.32070 0.00850 0.00831 0.00624 0.00794 0.00756 0.00877
282.33025 0.01026 0.00931 0.00988 0.01121 0.01064 0.00866
282.33981 0.00667 0.00705 0.00781 0.00705 0.00876 0.00862
282.34939 0.01318 0.00936 0.00879 0.01070 0.00860 0.00868
282.35894 0.00787 0.00672 0.00633 0.00806 0.00844 0.00884
282.36851 0.00999 0.00941 0.01153 0.00941 0.01210 0.00875
282.37809 0.01002 0.00655 0.00809 0.00887 0.00983 0.00864
282.38764 0.00920 0.00785 0.00651 0.00747 0.00498 0.00846
282.39720 0.01134 0.00961 0.01038 0.01115 0.01134 0.00829
282.40679 0.00626 0.00797 0.00815 0.01157 0.00740 0.00806
282.41634 0.01054 0.00881 0.00517 0.00977 0.00958 0.00812
282.42590 0.00533 0.00609 0.00400 0.00571 0.00552 0.00813
282.43548 0.00726 0.00783 0.00955 0.00707 0.00592 0.00819
282.44503 0.00936 0.00879 0.00860 0.00975 0.01013 0.00815
282.45460 0.00647 0.00647 0.00399 0.00628 0.00494 0.00797
282.46418 0.00754 0.00377 0.00528 0.00735 0.00867 0.00782
282.47373 0.00732 0.00732 0.00432 0.00469 0.00619 0.00764
282.48329 0.00914 0.00933 0.00784 0.00877 0.00896 0.00751
282.49284 0.00995 0.00995 0.00844 0.00995 0.00882 0.00753
282.50244 0.00714 0.00676 0.00639 0.00808 0.00789 0.00763
282.51199 0.00731 0.00656 0.00562 0.00731 0.00600 0.00762
282.52154 0.00956 0.00525 0.00900 0.00844 0.00694 0.00757
282.53110 0.00942 0.00678 0.00716 0.00829 0.00678 0.00746
282.54069 0.00844 0.00694 0.00751 0.00638 0.00638 0.00730
282.55024 0.00994 0.00750 0.00600 0.00712 0.00469 0.00717
282.55980 0.00811 0.00754 0.00509 0.00716 0.00660 0.00713
282.56935 0.00734 0.00546 0.00734 0.00903 0.00715 0.00710
282.57893 0.00911 0.00569 0.00683 0.00873 0.00645 0.00723
282.58850 0.01051 0.00535 0.00593 0.00841 0.00917 0.00727
282.59805 0.00590 0.00723 0.00495 0.00857 0.00571 0.00725
282.60760 0.00853 0.00663 0.00284 0.00739 0.00588 0.00710
282.61716 0.00879 0.00767 0.00916 0.00954 0.00972 0.00690
282.62674 0.00687 0.00743 0.00613 0.00706 0.00576 0.00673
282.63630 0.00651 0.00725 0.00279 0.00911 0.00576 0.00669
282.64586 0.00842 0.00543 0.00561 0.00786 0.00262 0.00676
282.65541 0.00655 0.00580 0.00412 0.00636 0.00748 0.00684
282.66496 0.00992 0.00767 0.00861 0.01142 0.00955 0.00685
282.67452 0.00895 0.00970 0.00653 0.01175 0.00877 0.00685
282.68411 0.00593 0.00389 0.00389 0.00611 0.00500 0.00657
282.69366 0.00477 0.00514 0.00532 0.00624 0.00514 0.00641
282.70322 0.00645 0.00497 0.00479 0.00553 0.00497 0.00634
282.71277 0.00569 0.00679 0.00514 0.00440 0.00642 0.00623
282.72234 0.00587 0.00698 0.00532 0.00679 0.00496 0.00626
282.73189 0.00443 0.00480 0.00350 0.00498 0.00480 0.00639
282.74144 0.00552 0.00846 0.00681 0.00736 0.00791 0.00638
282.75100 0.00995 0.00663 0.00774 0.00792 0.00848 0.00630
282.76058 0.00440 0.00586 0.00421 0.00513 0.00385 0.00616
282.77014 0.00476 0.00549 0.00293 0.00457 0.00604 0.00608
282.77970 0.00661 0.00643 0.00661 0.00808 0.00625 0.00604
282.78925 0.00698 0.00716 0.00532 0.00844 0.00624 0.00607
282.79880 0.00683 0.00665 0.00554 0.00443 0.00886 0.00605
282.80836 0.00388 0.00185 0.00314 0.00425 0.00222 0.00607
282.81792 0.00534 0.00773 0.00368 0.00736 0.00644 0.00610
282.82747 0.00610 0.00666 0.00629 0.00629 0.00610 0.00601
282.83703 0.00707 0.00726 0.00595 0.00949 0.00726 0.00595
282.84658 0.00842 0.00599 0.00505 0.00693 0.00636 0.00593
282.85613 0.00671 0.00541 0.00727 0.00447 0.00597 0.00589
282.86570 0.00280 0.00299 0.00168 0.00392 0.00411 0.00582
282.87528 0.00875 0.00894 0.00540 0.00614 0.00614 0.00580
282.88483 0.00905 0.00665 0.00554 0.00665 0.00554 0.00581
282.89439 0.00518 0.00407 0.00610 0.00629 0.00592 0.00579
282.90394 0.00387 0.00516 0.00350 0.00571 0.00626 0.00569
282.91351 0.00751 0.00604 0.00531 0.00714 0.00549 0.00560
282.92306 0.00656 0.00693 0.00365 0.00766 0.00620 0.00550
282.93261 0.00548 0.00420 0.00511 0.00457 0.00603 0.00545
282.94217 0.00421 0.00311 0.00274 0.00421 0.00658 0.00547
282.95172 0.00603 0.00420 0.00310 0.00548 0.00402 0.00549
282.96128 0.00512 0.00512 0.00567 0.00768 0.00530 0.00549
282.97084 0.00603 0.00823 0.00585 0.00585 0.00658 0.00548
282.98039 0.00532 0.00550 0.00514 0.00422 0.00514 0.00544
282.98994 0.00571 0.00479 0.00534 0.00497 0.00645 0.00534
282.99950 0.00622 0.00585 0.00476 0.00750 0.00549 0.00527
283.00906 0.00811 0.00682 0.00498 0.00793 0.00645 0.00525
283.01861 0.00756 0.00903 0.00737 0.00719 0.00627 0.00523
283.02814 0.00517 0.00591 0.00370 0.00462 0.00407 0.00532
283.03769 0.00752 0.00605 0.00440 0.00770 0.00605 0.00530
283.04724 0.00461 0.00701 0.00479 0.00590 0.00498 0.00532
283.05681 0.00371 0.00279 0.00353 0.00539 0.00371 0.00537
283.06636 0.00469 0.00676 0.00488 0.00882 0.00638 0.00527
283.07591 0.00430 0.00579 0.00467 0.00187 0.00374 0.00514
283.08547 0.00337 0.00319 0.00300 0.00300 0.00487 0.00491
283.09502 0.00714 0.00676 0.00902 0.00827 0.00564 0.00514
283.10458 0.00618 0.00449 0.00599 0.00505 0.00431 0.00517
283.11414 0.00695 0.00489 0.00752 0.00676 0.00733 0.00516
283.12369 0.00621 0.00583 0.00301 0.00602 0.00546 0.00519
283.13325 0.00640 0.00565 0.00395 0.00621 0.00263 0.00509
283.14280 0.00646 0.00570 0.00683 0.00683 0.00532 0.00509
283.15233 0.00547 0.00396 0.00321 0.00377 0.00302 0.00504
283.16189 0.00727 0.00466 0.00410 0.00522 0.00522 0.00498
283.17144 0.00542 0.00542 0.00504 0.00411 0.00411 0.00497
283.18099 0.00614 0.00558 0.00447 0.00484 0.00391 0.00496
283.19055 0.00450 0.00656 0.00637 0.00787 0.00674 0.00503
283.20011 0.00487 0.00561 0.00524 0.00393 0.00505 0.00496
283.20966 0.00620 0.00470 0.00113 0.00526 0.00451 0.00492
283.21919 0.00599 0.00786 0.00543 0.00543 0.00449 0.00480
283.22874 0.00786 0.00561 0.00543 0.00655 0.00599 0.00481
283.23829 0.00596 0.00428 0.00652 0.00652 0.00614 0.00477
283.24786 0.00407 0.00426 0.00259 0.00407 0.00296 0.00478
283.25741 0.00242 0.00354 0.00372 0.00298 0.00428 0.00478
283.26696 0.00665 0.00683 0.00794 0.00757 0.00609 0.00477
283.27649 0.00459 0.00569 0.00716 0.00441 0.00624 0.00470
283.28604 0.00680 0.00514 0.00331 0.00478 0.00423 0.00467
283.29559 0.00536 0.00296 0.00370 0.00536 0.00388 0.00458
283.30516 0.00461 0.00535 0.00369 0.00424 0.00387 0.00442
283.31471 0.00480 0.00498 0.00461 0.00461 0.00554 0.00449
283.32424 0.00669 0.00669 0.00576 0.00743 0.00706 0.00463
283.33379 0.00352 0.00389 0.00204 0.00259 0.00259 0.00461
283.34334 0.00317 0.00056 -0.00131 0.00037 -0.00093 0.00462
283.35291 0.00480 0.00480 0.00498 0.00498 0.00277 0.00452
283.36243 0.00352 0.00371 0.00148 0.00390 0.00501 0.00454
283.37198 0.00740 0.00703 0.00574 0.00629 0.00888 0.00448
283.38154 0.00482 0.00297 0.00445 0.00445 0.00594 0.00447
283.39109 0.00280 0.00224 0.00000 0.00373 0.00056 0.00447
283.40061 0.00558 0.00651 0.00484 0.00632 0.00539 0.00450
283.41018 0.00670 0.00632 0.00725 0.00744 0.00725 0.00448
283.41973 0.00410 0.00372 0.00484 0.00540 0.00503 0.00451
283.42928 0.00520 0.00446 0.00241 0.00409 0.00316 0.00446
283.43881 0.00465 0.00446 0.00409 0.00650 0.00409 0.00442
283.44836 0.00056 0.00279 0.00112 0.00261 0.00205 0.00439
283.45792 0.00443 0.00572 0.00535 0.00627 0.00720 0.00434
283.46745 0.00349 0.00459 0.00423 0.00496 0.00515 0.00431
283.47700 0.00313 0.00553 0.00387 0.00479 0.00442 0.00432
283.48655 0.00442 0.00350 0.00276 0.00386 0.00405 0.00432
283.49608 0.00478 0.00294 0.00551 0.00496 0.00827 0.00432
283.50564 0.00480 0.00369 0.00277 0.00535 0.00332 0.00428
283.51520 0.00614 0.00577 0.00465 0.00614 0.00670 0.00426
283.52472 0.00724 0.00705 0.00798 0.01002 0.00854 0.00421
283.53427 0.00316 0.00186 0.00279 0.00521 0.00372 0.00420
283.54383 0.00460 0.00294 0.00442 0.00331 0.00166 0.00414
283.55335 0.00315 0.00389 0.00296 0.00241 0.00445 0.00419
283.56291 0.00539 0.00316 0.00316 0.00428 0.00446 0.00425
283.57247 0.00632 0.00577 0.00577 0.00558 0.00763 0.00419
283.58199 0.00665 0.00295 0.00166 0.00388 0.00443 0.00415
283.59154 0.00514 0.00496 0.00202 0.00386 0.00588 0.00409
283.60110 0.00202 0.00110 0.00037 0.00313 0.00349 0.00406
283.61063 0.00513 0.00732 0.00311 0.00513 0.00531 0.00402
283.62018 0.00624 0.00588 0.00606 0.00661 0.00367 0.00403
283.62971 0.00129 0.00092 -0.00074 0.00111 0.00222 0.00406
283.63926 0.00222 0.00426 0.00501 0.00241 0.00612 0.00407
283.64881 0.00317 0.00503 0.00447 0.00335 0.00279 0.00409
283.65834 0.00465 0.00502 0.00465 0.00465 0.00335 0.00404
283.66790 0.00315 0.00278 0.00223 0.00241 0.00408 0.00400
283.67742 0.00276 0.00369 0.00276 0.00442 0.00442 0.00394
283.68698 0.00538 0.00315 0.00519 0.00389 0.00445 0.00397
283.69650 0.00313 0.00424 0.00037 0.00295 0.00277 0.00393
283.70606 0.00371 0.00594 0.00371 0.00260 0.00130 0.00395
283.71562 0.00316 0.00093 0.00372 0.00205 0.00521 0.00398
283.72514 0.00353 0.00149 0.00335 0.00335 0.00000 0.00395
283.73470 0.00838 0.00763 0.00521 0.00763 0.00652 0.00396
283.74422 0.00241 0.00260 0.00390 0.00501 0.00408 0.00391
283.75377 0.00571 0.00387 0.00239 0.00700 0.00461 0.00385
283.76330 0.00367 0.00403 0.00458 0.00458 0.00513 0.00384
283.77286 0.00367 0.00257 0.00110 0.00202 0.00092 0.00361
283.78238 0.00749 0.00420 0.00675 0.00402 0.00511 0.00372
283.79194 0.00719 0.00608 0.00553 0.00369 0.00627 0.00386
283.80146 0.00220 0.00037 0.00184 0.00147 0.00110 0.00382
283.81101 0.00330 0.00018 0.00330 0.00275 0.00458 0.00380
283.82054 0.00620 0.00438 0.00711 0.00766 0.00547 0.00372
283.83010 0.00510 0.00346 0.00219 0.00401 0.00693 0.00369
283.83962 0.00273 0.00419 0.00018 0.00018 0.00328 0.00367
283.84918 0.00529 0.00456 0.00401 0.00492 0.00565 0.00369
283.85870 0.00350 0.00331 0.00460 0.00423 0.00221 0.00371
283.86825 0.00478 0.00497 0.00313 0.00460 0.00644 0.00372
283.87778 0.00422 0.00092 0.00128 0.00330 0.00294 0.00371
283.88731 0.00567 0.00567 0.00384 0.00421 0.00549 0.00368
283.89686 0.00585 0.00420 0.00329 0.00365 0.00311 0.00366
283.90639 0.00528 0.00328 0.00346 0.00346 0.00328 0.00357
283.91594 0.00357 0.00143 0.00125 0.00339 0.00268 0.00348
283.92547 0.00466 0.00502 0.00305 0.00233 0.00358 0.00350
283.93503 0.00516 0.00569 0.00498 0.00676 0.00320 0.00352
283.94455 0.00270 0.00234 0.00342 0.00306 0.00234 0.00361
283.95408 0.00414 0.00306 0.00414 0.00180 0.00594 0.00359
283.96363 0.00342 0.00378 0.00162 0.00036 0.00234 0.00355
283.97315 0.00144 0.00216 0.00449 0.00252 0.00234 0.00353
283.98271 0.00179 0.00269 0.00484 0.00395 0.00359 0.00351
283.99224 0.00604 0.00604 0.00516 0.00373 0.00516 0.00346
284.00176 0.00445 0.00374 0.00605 0.00516 0.00462 0.00350
284.01132 0.00517 0.00285 0.00446 0.00499 0.00268 0.00352
284.02084 0.00790 0.00341 0.00323 0.00413 0.00485 0.00346
284.03036 0.00306 0.00360 0.00198 0.00216 0.00431 0.00347
284.03992 0.00376 0.00412 0.00179 0.00430 0.00430 0.00351
284.04945 0.00269 0.00449 0.00556 0.00395 0.00341 0.00345
284.05900 0.00304 0.00197 0.00393 0.00429 0.00304 0.00347
284.06853 0.00408 0.00373 0.00408 0.00284 0.00177 0.00340
284.07805 0.00390 0.00337 0.00497 0.00372 0.00461 0.00342
284.08760 0.00125 0.00287 0.00143 0.00233 -0.00072 0.00336
284.09713 0.00411 0.00250 0.00161 0.00322 0.00286 0.00319
284.10666 0.00720 0.00504 0.00450 0.00757 0.00630 0.00339
284.11619 0.00469 0.00433 0.00361 0.00451 0.00180 0.00336
284.12574 0.00018 0.00090 0.00072 0.00197 0.00215 0.00338
284.13526 0.00468 0.00432 0.00540 0.00288 0.00414 0.00336
284.14479 0.00698 0.00286 0.00573 0.00358 0.00591 0.00332
284.15434 0.00270 0.00126 0.00306 0.00288 0.00288 0.00325
284.16386 0.00305 0.00359 0.00233 0.00467 0.00467 0.00328
284.17340 0.00399 0.00435 0.00327 0.00399 0.00254 0.00340
284.18295 0.00288 0.00324 0.00018 0.00306 0.00234 0.00338
284.19247 0.00036 0.00396 -0.00144 0.00162 0.00126 0.00333
284.20200 0.00251 -0.00107 0.00107 0.00054 0.00251 0.00329
284.21152 0.00196 0.00161 0.00000 0.00161 0.00232 0.00328
284.22107 0.00642 0.00553 0.00606 0.00535 0.00481 0.00325
284.23061 0.00301 0.00266 0.00372 0.00372 0.00177 0.00324
284.24013 0.00322 0.00465 0.00519 0.00429 0.00179 0.00328
284.24965 0.00533 0.00444 0.00444 0.00533 0.00266 0.00325
284.25918 0.00484 0.00556 0.00323 0.00484 0.00538 0.00327
284.26873 0.00216 0.00360 0.00180 0.00144 0.00288 0.00325
284.27826 0.00126 0.00470 0.00614 0.00397 0.00271 0.00323
284.28779 0.00325 0.00487 0.00505 0.00361 0.00325 0.00324
284.29731 0.00218 0.00381 0.00344 0.00417 0.00036 0.00325
284.30687 0.00308 0.00254 0.00344 0.00217 0.00054 0.00325
284.31639 0.00326 0.00399 0.00217 0.00380 0.00380 0.00325
284.32591 0.00127 0.00254 0.00272 0.00272 0.00363 0.00327
284.33544 0.00215 0.00358 0.00322 0.00412 0.00268 0.00318
284.34497 0.00270 0.00234 0.00072 0.00415 0.00541 0.00319
284.35449 0.00181 0.00199 0.00289 0.00217 0.00307 0.00319
284.36405 0.00414 0.00360 0.00342 0.00162 0.00306 0.00320
284.37357 0.00648 0.00270 0.00396 0.00144 0.00162 0.00318
284.38309 0.00433 0.00324 0.00397 0.00415 0.00288 0.00317
284.39262 0.00178 0.00000 0.00178 0.00054 0.00143 0.00316
284.40214 0.00481 0.00516 0.00303 0.00374 0.00249 0.00316
284.41167 0.00264 0.00159 0.00229 0.00229 0.00282 0.00311
284.42120 0.00263 0.00158 0.00140 0.00158 0.00228 0.00307
284.43075 0.00388 0.00247 0.00088 0.00264 0.00282 0.00307
284.44027 0.00053 0.00247 0.00123 0.00212 0.00282 0.00306
284.44980 0.00491 0.00561 0.00561 0.00421 0.00579 0.00309
284.45932 0.00088 0.00159 0.00141 -0.00018 0.00124 0.00322
284.46886 0.00194 0.00229 -0.00035 0.00247 0.00265 0.00309
284.47838 0.00282 0.00317 0.00441 0.00493 0.00564 0.00307
284.48790 0.00000 0.00212 0.00123 0.00476 0.00335 0.00302
284.49743 0.00336 0.00283 0.00512 0.00459 0.00283 0.00302
284.50695 0.00405 0.00511 0.00106 0.00458 0.00388 0.00299
284.51647 0.00606 0.00375 0.00499 0.00446 0.00268 0.00301
284.52603 0.00409 0.00267 0.00107 0.00303 0.00018 0.00300
284.53556 0.00338 0.00373 0.00231 0.00338 0.00462 0.00301
284.54508 0.00572 0.00679 0.00250 0.00286 0.00322 0.00305
284.55461 0.00230 0.00460 0.00053 0.00212 0.00495 0.00301
284.56413 0.00229 0.00352 0.00423 0.00511 0.00370 0.00295
284.57365 0.00368 0.00333 0.00316 0.00228 0.00509 0.00292
284.58318 0.00475 0.00352 0.00404 0.00510 0.00299 0.00290
284.59271 0.00229 0.00299 0.00334 0.00352 0.00299 0.00293
284.60223 0.00106 0.00106 0.00194 0.00158 0.00158 0.00287
284.61176 0.00563 0.00668 0.00404 0.00545 0.00633 0.00286
284.62128 0.00382 0.00522 0.00591 0.00539 0.00365 0.00282
284.63080 0.00366 0.00192 0.00157 0.00349 0.00279 0.00283
284.64033 0.00363 0.00432 0.00501 0.00639 0.00553 0.00281
284.64985 0.00362 0.00379 0.00138 0.00138 0.00328 0.00279
284.65939 0.00553 0.00432 0.00432 0.00553 0.00605 0.00276
284.66891 0.00415 0.00380 0.00380 0.00484 0.00363 0.00276
284.67843 0.00521 0.00365 0.00347 0.00538 0.00417 0.00277
284.68796 0.00363 0.00224 0.00104 0.00397 0.00155 0.00275
284.69748 0.00418 0.00453 0.00296 0.00557 0.00470 0.00277
284.70700 0.00156 0.00313 0.00156 0.00261 0.00156 0.00277
284.71653 0.00244 0.00296 0.00331 0.00122 0.00174 0.00274
284.72606 0.00363 0.00156 0.00052 0.00381 0.00225 0.00270
284.73558 0.00296 0.00261 0.00139 0.00174 0.00174 0.00269
284.74508 0.00541 0.00122 0.00296 0.00349 0.00366 0.00270
284.75460 0.00174 0.00330 0.00365 0.00226 0.00243 0.00267
284.76412 0.00489 0.00454 0.00262 0.00419 0.00419 0.00269
284.77365 0.00417 0.00434 0.00295 0.00504 0.00208 0.00265
284.78317 -0.00070 0.00246 0.00333 0.00351 0.00246 0.00268
284.79270 0.00316 0.00158 0.00281 0.00263 -0.00193 0.00266
284.80223 0.00228 0.00193 0.00281 0.00141 0.00246 0.00264
284.81175 0.00123 0.00175 0.00070 -0.00035 -0.00018 0.00263
284.82127 0.00458 0.00528 0.00352 0.00476 0.00458 0.00262
284.83080 0.00543 0.00385 0.00420 0.00490 0.00473 0.00260
284.84029 0.00368 0.00333 0.00298 0.00228 0.00281 0.00259
284.84982 0.00401 0.00262 0.00052 0.00436 0.00174 0.00259
284.85935 0.00243 0.00261 0.00087 0.00087 0.00382 0.00259
284.86887 0.00520 0.00468 0.00624 0.00537 0.00485 0.00257
284.87840 0.00432 0.00207 0.00259 0.00155 0.00276 0.00255
284.88792 0.00260 0.00260 0.00294 0.00433 0.00260 0.00251
284.89744 0.00227 0.00192 0.00087 0.00122 0.00174 0.00253
284.90694 0.00329 0.00347 0.00381 0.00364 0.00433 0.00250
284.91646 0.00437 0.00315 0.00192 0.00262 0.00227 0.00255
284.92599 0.00399 0.00555 0.00191 0.00174 0.00434 0.00252
284.93552 0.00000 0.00140 0.00070 0.00052 0.00105 0.00254
284.94504 0.00192 0.00349 0.00209 0.00366 0.00366 0.00251
284.95456 0.00175 0.00228 0.00035 0.00105 0.00280 0.00250
284.96406 0.00228 0.00298 0.00298 0.00228 0.00420 0.00247
284.97358 0.00194 0.00106 0.00123 0.00106 -0.00035 0.00248
284.98310 0.00421 0.00281 0.00228 0.00351 0.00316 0.00247
284.99264 0.00352 0.00316 0.00193 0.00088 0.00229 0.00248
285.00216 0.00548 0.00230 0.00354 0.00301 0.00212 0.00249
285.01165 0.00581 0.00370 0.00458 0.00370 0.00352 0.00248
285.02118 0.00177 0.00177 0.00284 0.00000 0.00319 0.00248
285.03070 0.00373 0.00391 0.00409 0.00373 0.00391 0.00247
285.04023 0.00518 0.00232 0.00232 0.00232 0.00196 0.00259
285.04972 0.00178 0.00195 0.00249 0.00213 -0.00089 0.00239
285.05925 0.00474 0.00211 0.00299 0.00650 0.00316 0.00240
285.06878 0.00000 0.00248 0.00301 0.00248 0.00266 0.00242
285.07830 0.00246 0.00316 0.00351 0.00281 0.00228 0.00242
285.08779 0.00459 0.00088 0.00141 0.00124 0.00141 0.00248
285.09732 0.00300 0.00141 0.00229 0.00088 0.00370 0.00240
285.10684 0.00298 0.00053 0.00158 0.00070 0.00105 0.00236
285.11633 0.00391 0.00320 0.00178 0.00391 0.00426 0.00238
285.12586 -0.00018 -0.00088 -0.00053 -0.00035 0.00035 0.00235
285.13539 0.00230 0.00142 -0.00035 0.00106 0.00337 0.00235
285.14491 0.00141 0.00159 0.00088 0.00264 0.00264 0.00235
285.15441 0.00320 0.00374 0.00214 0.00569 0.00392 0.00249
285.16393 0.00445 0.00178 0.00213 0.00089 0.00178 0.00238
285.17345 0.00448 0.00251 0.00394 0.00412 0.00251 0.00237
285.18295 0.00178 0.00018 0.00267 0.00160 -0.00125 0.00233
285.19247 0.00394 0.00448 0.00340 0.00305 0.00215 0.00233
285.20201 0.00409 0.00373 0.00391 0.00338 0.00320 0.00232
285.21150 0.00211 0.00422 0.00105 0.00422 0.00492 0.00229
285.22102 0.00263 0.00123 0.00403 0.00333 0.00123 0.00227
285.23055 0.00176 0.00106 0.00000 0.00352 0.00194 0.00228
285.24004 0.00264 0.00018 0.00212 0.00176 -0.00018 0.00227
285.24956 0.00213 0.00195 0.00231 -0.00053 0.00053 0.00227
285.25906 0.00529 0.00459 0.00388 0.00335 0.00406 0.00224
285.26858 0.00371 0.00354 0.00354 0.00212 0.00283 0.00219
285.27811 0.00368 0.00438 0.00333 0.00456 0.00386 0.00220
285.28761 0.00368 0.00210 0.00280 0.00315 0.00193 0.00221
285.29713 0.00174 0.00035 0.00070 0.00156 0.00261 0.00218
285.30662 0.00437 0.00192 0.00192 0.00192 0.00315 0.00221
285.31615 0.00244 0.00227 0.00087 0.00000 0.00366 0.00219
285.32567 0.00211 0.00158 0.00228 0.00369 0.00246 0.00212
285.33516 0.00593 0.00314 0.00157 0.00401 0.00453 0.00217
285.34469 0.00157 -0.00052 0.00279 0.00296 0.00209 0.00217
285.35419 0.00278 0.00295 0.00382 0.00139 0.00139 0.00213
285.36371 0.00140 0.00244 0.00017 0.00070 0.00000 0.00211
285.37321 0.00279 0.00436 0.00401 0.00436 0.00314 0.00220
285.38273 -0.00088 0.00210 0.00158 0.00105 0.00088 0.00216
285.39226 0.00176 0.00316 0.00053 0.00246 0.00211 0.00215
285.40175 0.00296 0.00314 0.00331 0.00348 0.00435 0.00214
285.41127 0.00262 0.00210 0.00332 0.00210 0.00402 0.00210
285.42077 0.00176 0.00334 0.00387 0.00194 0.00211 0.00215
285.43030 0.00229 0.00177 0.00247 0.00212 0.00212 0.00212
285.43979 0.00035 0.00106 0.00071 0.00300 -0.00018 0.00212
285.44932 0.00461 0.00337 0.00089 0.00373 0.00018 0.00213
285.45881 0.00547 0.00282 0.00618 0.00300 0.00406 0.00213
285.46833 0.00351 0.00245 0.00263 0.00228 0.00333 0.00211
285.47783 0.00351 0.00176 0.00176 0.00193 0.00298 0.00209
285.48735 0.00436 0.00332 0.00384 0.00314 0.00279 0.00206
285.49684 0.00122 0.00192 0.00140 0.00052 0.00157 0.00206
285.50638 0.00191 0.00278 0.00313 0.00157 0.00174 0.00205
285.51587 0.00140 0.00000 0.00123 -0.00105 0.00070 0.00207
285.52539 0.00296 0.00192 0.00227 0.00314 0.00139 0.00206
285.53489 0.00420 0.00525 0.00402 0.00350 0.00577 0.00204
285.54438 0.00087 0.00364 0.00052 0.00139 0.00364 0.00202
285.55391 0.00121 0.00121 0.00156 0.00156 0.00277 0.00201
285.56340 0.00207 0.00052 0.00000 0.00156 0.00017 0.00205
285.57292 0.00243 -0.00035 0.00226 0.00278 0.00139 0.00202
285.58242 0.00226 0.00330 0.00347 0.00538 0.00312 0.00198
285.59195 0.00156 0.00174 0.00087 0.00000 -0.00052 0.00198
285.60144 0.00052 0.00122 0.00035 0.00087 0.00122 0.00200
285.61094 0.00174 0.00104 -0.00017 0.00070 0.00017 0.00200
285.62046 0.00035 0.00209 0.00279 0.00366 0.00279 0.00200
285.62995 0.00332 0.00244 0.00506 0.00401 0.00244 0.00199
285.63948 -0.00105 -0.00035 0.00000 0.00000 0.00139 0.00198
285.64897 0.00384 0.00384 0.00192 0.00227 0.00402 0.00195
285.65846 0.00071 -0.00053 0.00088 0.00123 0.00159 0.00195
285.66800 0.00194 0.00194 0.00035 -0.00018 0.00035 0.00195
285.67749 0.00141 0.00018 0.00070 0.00035 0.00053 0.00196
285.68701 0.00142 0.00089 0.00089 0.00177 0.00018 0.00189
285.69651 0.00088 0.00035 0.00018 -0.00018 0.00088 0.00190
285.70600 0.00125 0.00071 0.00160 0.00000 -0.00125 0.00178
285.71552 0.00564 0.00053 0.00405 0.00370 0.00617 0.00192
285.72502 0.00284 0.00160 0.00195 0.00124 0.00337 0.00192
285.73451 0.00337 -0.00053 0.00248 0.00231 0.00302 0.00193
285.74404 0.00247 0.00283 0.00177 0.00035 0.00194 0.00195
285.75354 0.00281 0.00105 0.00264 0.00299 0.00299 0.00192
285.76303 0.00228 -0.00070 0.00053 0.00123 0.00193 0.00190
285.77256 0.00422 0.00458 0.00510 0.00387 0.00422 0.00190
285.78205 -0.00018 0.00334 -0.00053 0.00141 0.00317 0.00192
285.79154 0.00141 0.00265 0.00194 0.00159 0.00194 0.00190
285.80104 0.00513 0.00601 0.00637 0.00407 0.00318 0.00190
285.81056 -0.00071 0.00053 0.00071 -0.00053 0.00124 0.00187
285.82005 0.00159 0.00265 -0.00053 0.00035 -0.00018 0.00189
285.82955 0.00510 0.00369 0.00439 0.00562 0.00474 0.00189
285.83908 -0.00070 0.00175 0.00070 0.00209 -0.00035 0.00186
285.84857 0.00088 0.00088 0.00123 0.00229 0.00176 0.00188
285.85807 0.00210 -0.00052 0.00385 0.00402 0.00122 0.00187
285.86756 0.00226 0.00261 0.00191 0.00122 0.00261 0.00179
285.87708 0.00591 0.00261 0.00296 0.00435 0.00122 0.00181
285.88658 0.00139 0.00052 0.00209 0.00070 0.00052 0.00183
285.89607 0.00418 0.00366 0.00174 0.00401 0.00209 0.00181
285.90557 0.00174 0.00226 -0.00070 0.00226 0.00087 0.00179
285.91509 0.00280 0.00385 0.00368 0.00263 0.00455 0.00181
285.92459 0.00017 0.00070 0.00087 0.00244 0.00035 0.00181
285.93409 0.00139 0.00261 0.00087 -0.00087 -0.00191 0.00180
285.94358 0.00052 0.00052 0.00017 0.00104 0.00017 0.00178
285.95307 0.00278 0.00400 0.00348 0.00174 0.00226 0.00178
285.96260 0.00207 0.00190 0.00225 0.00259 0.00086 0.00173
285.97209 0.00332 0.00227 0.00262 0.00367 0.00035 0.00178
285.98158 0.00087 0.00035 -0.00017 0.00087 0.00121 0.00178
285.99108 0.00139 0.00330 0.00209 0.00139 0.00174 0.00176
286.00057 0.00261 0.00278 0.00330 0.00104 0.00261 0.00177
286.01006 0.00468 0.00451 0.00381 0.00433 0.00502 0.00174
286.01960 0.00242 0.00173 0.00104 0.00259 0.00242 0.00176
286.02909 0.00000 0.00052 -0.00069 0.00139 0.00243 0.00179
286.03858 0.00295 0.00191 0.00381 -0.00104 0.00087 0.00172
286.04808 0.00209 0.00226 0.00226 0.00139 0.00226 0.00172
286.05757 0.00535 0.00207 0.00311 0.00362 0.00518 0.00172
286.06706 0.00415 0.00519 0.00087 0.00346 0.00156 0.00172
286.07656 0.00191 0.00312 0.00121 0.00260 0.00347 0.00172
286.08608 0.00104 0.00156 0.00208 0.00017 0.00017 0.00172
286.09558 0.00191 -0.00122 0.00122 -0.00017 -0.00035 0.00173
286.10508 0.00070 -0.00052 0.00104 0.00000 0.00139 0.00170
286.11457 0.00052 -0.00017 0.00157 -0.00175 0.00000 0.00170
286.12407 0.00122 0.00261 0.00209 0.00296 0.00174 0.00169
286.13356 0.00262 0.00245 0.00227 0.00280 0.00070 0.00170
286.14305 0.00105 0.00105 0.00053 0.00280 0.00228 0.00171
286.15255 0.00315 0.00315 0.00193 0.00175 0.00455 0.00171
286.16204 0.00280 0.00298 0.00088 0.00193 0.00140 0.00172
286.17153 0.00228 0.00158 0.00175 0.00123 0.00123 0.00173
286.18103 -0.00192 -0.00035 0.00070 0.00017 -0.00175 0.00170
286.19052 0.00332 0.00227 0.00140 0.00175 0.00035 0.00167
286.20005 0.00226 0.00452 0.00226 0.00348 0.00244 0.00167
286.20955 0.00353 0.00212 0.00441 0.00212 0.00282 0.00163
286.21904 0.00283 0.00353 0.00212 0.00194 0.00283 0.00165
286.22853 0.00266 0.00496 0.00283 0.00301 0.00425 0.00168
286.23803 0.00000 -0.00036 0.00036 -0.00125 -0.00071 0.00170
286.24752 0.00283 0.00336 0.00141 0.00265 0.00141 0.00167
286.25702 0.00230 -0.00088 0.00106 -0.00177 0.00035 0.00164
286.26651 0.00391 0.00160 0.00373 0.00267 -0.00124 0.00165
286.27600 0.00106 0.00035 0.00194 0.00177 0.00212 0.00165
286.28550 -0.00071 -0.00018 0.00124 0.00000 -0.00035 0.00166
286.29500 0.00177 0.00071 0.00406 0.00124 0.00124 0.00165
286.30449 0.00337 0.00089 0.00089 0.00089 0.00496 0.00165
286.31399 -0.00036 0.00196 0.00036 0.00339 0.00107 0.00164
286.32348 0.00248 0.00355 0.00514 0.00124 0.00302 0.00164
286.33297 0.00495 0.00177 0.00371 0.00230 0.00371 0.00160
286.34247 0.00443 0.00212 0.00372 0.00425 0.00283 0.00163
286.35196 -0.00087 0.00000 -0.00070 0.00070 -0.00035 0.00157
286.36142 0.00386 0.00351 0.00281 0.00491 0.00614 0.00156
286.37092 0.00351 0.00228 -0.00158 0.00263 0.00018 0.00159
286.38041 0.00209 0.00122 0.00087 0.00227 0.00052 0.00159
286.38990 0.00649 0.00316 0.00298 0.00298 0.00386 0.00162
286.39941 0.00227 0.00070 0.00174 0.00297 0.00174 0.00160
286.40890 0.00278 0.00139 0.00174 -0.00052 0.00383 0.00164
286.41840 0.00366 0.00384 0.00279 0.00314 0.00227 0.00157
286.42789 0.00262 0.00210 0.00280 0.00105 0.00070 0.00155
286.43738 0.00122 -0.00017 0.00192 0.00140 0.00315 0.00155
286.44688 0.00281 0.00298 0.00369 0.00140 0.00211 0.00156
286.45637 0.00158 0.00070 0.00070 0.00315 0.00280 0.00154
286.46586 0.00298 0.00543 0.00386 0.00456 0.00403 0.00159
286.47533 -0.00053 0.00210 0.00193 0.00210 0.00210 0.00154
286.48482 0.00070 0.00210 0.00193 0.00140 0.00228 0.00153
286.49431 0.00157 0.00070 0.00192 0.00017 0.00087 0.00153
286.50382 -0.00087 0.00104 0.00156 0.00208 0.00121 0.00152
286.51331 -0.00069 -0.00104 0.00122 -0.00017 -0.00052 0.00154
286.52280 -0.00017 0.00035 0.00069 -0.00104 -0.00035 0.00154
286.53230 0.00471 0.00157 0.00087 0.00332 0.00297 0.00151
286.54176 0.00329 0.00173 0.00329 0.00104 0.00347 0.00150
286.55125 0.00190 0.00259 0.00259 0.00000 0.00069 0.00150
286.56075 0.00190 0.00173 0.00225 0.00035 0.00156 0.00160
286.57024 0.00428 0.00548 0.00223 0.00377 0.00154 0.00150
286.57973 -0.00017 0.00290 -0.00154 0.00119 0.00000 0.00147
286.58923 0.00170 -0.00102 0.00102 0.00170 0.00153 0.00145
286.59869 0.00342 -0.00017 0.00205 0.00051 0.00085 0.00147
286.60820 0.00341 0.00170 0.00136 0.00068 0.00034 0.00146
286.61769 0.00257 0.00325 0.00291 0.00359 0.00308 0.00148
286.62718 0.00343 0.00137 0.00086 0.00257 0.00120 0.00147
286.63665 0.00223 0.00051 0.00309 0.00377 0.00103 0.00146
286.64614 0.00223 0.00103 0.00309 0.00257 0.00051 0.00147
286.65563 -0.00051 0.00239 0.00256 0.00068 0.00085 0.00144
286.66513 0.00120 0.00309 0.00257 0.00309 0.00446 0.00143
286.67462 0.00309 0.00378 0.00034 0.00309 0.00224 0.00143
286.68408 0.00017 0.00051 0.00034 -0.00051 0.00086 0.00129
286.69358 0.00224 0.00104 0.00052 -0.00173 0.00224 0.00138
286.70307 0.00069 -0.00052 -0.00034 0.00052 0.00000 0.00143
286.71256 0.00259 0.00121 0.00155 0.00017 0.00379 0.00137
286.72204 0.00325 0.00240 0.00120 0.00291 0.00565 0.00142
286.73153 0.00363 0.00398 0.00121 0.00190 0.00069 0.00143
286.74102 0.00190 0.00139 0.00035 0.00260 0.00121 0.00140
286.75049 0.00225 0.00277 0.00260 0.00243 0.00225 0.00140
286.75998 0.00121 -0.00069 -0.00121 0.00087 -0.00173 0.00142
286.76948 0.00104 -0.00139 0.00157 0.00104 0.00087 0.00145
286.77894 0.00366 0.00226 0.00348 0.00279 0.00192 0.00142
286.78843 0.00052 -0.00104 -0.00208 0.00052 -0.00069 0.00142
286.79793 0.00225 0.00242 0.00276 0.00466 0.00449 0.00139
286.80742 0.00121 -0.00121 0.00000 0.00103 0.00172 0.00142
286.81688 0.00363 0.00259 0.00035 0.00294 0.00311 0.00139
286.82638 0.00086 -0.00051 0.00360 0.00257 0.00171 0.00138
286.83588 0.00242 0.00017 -0.00017 -0.00069 -0.00035 0.00140
286.84534 0.00017 0.00069 0.00156 0.00121 0.00121 0.00131
286.85484 0.00069 0.00382 0.00191 0.00191 0.00139 0.00140
286.86430 -0.00017 -0.00052 -0.00295 -0.00087 -0.00069 0.00139
286.87379 0.00017 -0.00174 0.00157 0.00000 0.00122 0.00137
286.88329 0.00190 0.00311 0.00277 0.00415 0.00415 0.00139
286.89275 0.00244 0.00192 0.00192 0.00105 0.00035 0.00135
286.90224 0.00139 0.00035 0.00000 0.00035 0.00139 0.00140
286.91174 0.00191 -0.00035 0.00070 0.00035 0.00070 0.00138
286.92120 0.00312 0.00278 0.00208 -0.00087 0.00104 0.00137
286.93070 0.00261 0.00279 0.00192 0.00122 0.00157 0.00137
286.94016 0.00399 0.00399 0.00104 0.00382 0.00121 0.00132
286.94965 0.00174 0.00296 0.00192 0.00279 0.00174 0.00124
286.95916 0.00277 0.00138 0.00138 0.00346 0.00277 0.00131
286.96862 0.00174 0.00035 0.00383 0.00157 0.00209 0.00131
286.97811 0.00433 0.00208 0.00311 0.00363 0.00398 0.00133
286.98758 0.00189 -0.00017 0.00120 0.00086 0.00155 0.00133
286.99707 0.00190 0.00259 0.00173 0.00104 0.00035 0.00134
287.00653 0.00000 0.00222 0.00051 0.00205 0.00205 0.00138
287.01603 -0.00136 -0.00034 -0.00051 -0.00136 -0.00068 0.00139
287.02549 0.00085 0.00154 0.00137 0.00137 -0.00085 0.00131
287.03498 0.00222 -0.00068 0.00187 0.00187 0.00136 0.00130
287.04445 0.00153 0.00136 0.00085 0.00034 0.00170 0.00129
287.05394 0.00374 0.00357 0.00357 0.00391 0.00289 0.00127
287.06340 0.00171 -0.00051 0.00137 0.00154 0.00188 0.00129
287.07290 0.00172 0.00448 0.00207 0.00362 0.00258 0.00131
287.08239 0.00069 0.00086 0.00309 0.00103 0.00258 0.00130
287.09187 0.00256 0.00222 0.00017 0.00188 0.00427 0.00128
287.10133 0.00120 0.00069 0.00017 0.00000 0.00189 0.00130
287.11082 0.00275 0.00482 0.00206 0.00189 0.00086 0.00133
287.12029 0.00120 0.00017 0.00206 0.00034 0.00137 0.00140
287.12978 0.00171 0.00171 0.00085 -0.00017 -0.00103 0.00130
287.13924 0.00377 0.00188 0.00068 0.00017 0.00017 0.00128
287.14874 0.00340 0.00204 0.00272 0.00187 0.00238 0.00138
287.15820 0.00272 0.00187 0.00289 0.00221 0.00153 0.00126
287.16769 -0.00017 0.00356 0.00135 0.00237 0.00034 0.00125
287.17716 0.00017 0.00204 0.00051 0.00085 -0.00085 0.00126
287.18665 0.00307 0.00324 0.00136 0.00341 0.00256 0.00126
287.19611 -0.00118 -0.00118 0.00017 0.00034 -0.00051 0.00123
287.20561 0.00067 -0.00034 0.00051 -0.00152 0.00017 0.00122
287.21507 0.00301 0.00284 0.00134 0.00150 0.00117 0.00122
287.22453 0.00050 0.00151 0.00033 0.00151 0.00050 0.00123
287.23404 0.00083 0.00150 0.00000 0.00083 0.00133 0.00122
287.24350 0.00298 0.00166 0.00017 0.00166 0.01988 0.00122
287.25300 -0.00017 0.00134 0.00050 0.00301 0.00502 0.00121
287.26246 0.00117 -0.00067 -0.00067 0.00101 0.00771 0.00122
287.27192 0.00317 0.00167 0.00150 0.00317 0.01085 0.00120
287.28142 0.00301 0.00385 0.00251 0.00201 0.00686 0.00119
287.29088 0.00167 -0.00017 -0.00017 -0.00100 0.01049 0.00118
287.30034 0.00034 -0.00151 -0.00151 -0.00050 0.00151 0.00121
287.30984 0.00185 0.00185 0.00067 0.00336 0.00269 0.00121
287.31930 0.00233 0.00083 0.00117 0.00433 0.00117 0.00120
287.32879 0.00117 -0.00017 0.00151 0.00050 0.00117 0.00120
287.33826 0.00100 -0.00117 -0.00017 0.00134 0.00134 0.00120
287.34772 0.00201 0.00385 0.00301 0.00167 0.00234 0.00118
287.35721 0.00117 0.00184 0.00134 0.00150 0.00150 0.00116
287.36668 0.00252 0.00454 0.00370 0.00236 0.00269 0.00118
287.37615 0.00051 0.00000 -0.00153 -0.00136 0.00034 0.00120
287.38561 0.00017 -0.00051 -0.00085 -0.00068 0.00017 0.00118
287.39511 0.00186 -0.00068 0.00135 0.00017 0.00085 0.00118
287.40457 -0.00221 -0.00357 -0.00102 0.00017 -0.00170 0.00122
287.41404 0.00340 0.00136 0.00306 0.00153 0.00153 0.00113
287.42353 0.00423 0.00135 0.00051 0.00169 0.00119 0.00118
287.43299 0.00236 0.00050 -0.00168 0.00017 0.00034 0.00114
287.44246 0.00354 0.00101 0.00051 0.00321 0.00236 0.00119
287.45195 -0.00186 0.00101 0.00118 -0.00152 0.00017 0.00119
287.46141 0.00219 0.00135 0.00101 0.00236 0.00252 0.00117
287.47088 0.00168 0.00285 0.00168 0.00218 0.00235 0.00116
287.48034 0.00220 0.00135 0.00473 0.00304 0.00372 0.00118
287.48983 0.00133 0.00133 0.00117 0.00133 0.00167 0.00113
287.49930 0.00186 -0.00085 0.00203 0.00034 0.00085 0.00115
287.50876 -0.00017 -0.00117 0.00201 0.00217 0.00234 0.00111
287.51822 0.00118 -0.00034 0.00118 0.00084 0.00169 0.00115
287.52769 0.00218 0.00369 0.00017 0.00000 -0.00117 0.00114
287.53719 0.00287 0.00101 0.00101 0.00270 0.00236 0.00115
287.54665 0.00102 0.00322 0.00186 0.00322 0.00254 0.00116
287.55612 0.00338 0.00220 0.00169 0.00271 -0.00068 0.00115
287.56558 0.00389 0.00338 0.00422 0.00253 0.00439 0.00115
287.57508 0.00119 0.00085 -0.00034 0.00153 -0.00085 0.00114
287.58454 0.00304 0.00355 0.00152 0.00254 0.00068 0.00111
287.59400 -0.00068 -0.00051 -0.00051 -0.00136 -0.00187 0.00105
287.60347 0.00375 0.00034 0.00068 -0.00136 0.00034 0.00101
287.61293 0.00017 0.00307 0.00034 0.00017 0.00273 0.00113
287.62239 -0.00051 -0.00172 -0.00206 0.00069 0.00051 0.00111
287.63189 0.00034 0.00034 0.00086 -0.00034 -0.00223 0.00115
287.64135 -0.00085 0.00034 -0.00102 -0.00068 -0.00102 0.00111
287.65081 0.00171 0.00308 0.00325 0.00239 0.00137 0.00110
287.66028 0.00376 0.00171 0.00068 0.00188 0.00205 0.00110
287.66974 0.00137 0.00017 0.00240 0.00274 0.00428 0.00115
287.67920 0.00290 0.00102 0.00187 0.00170 0.00119 0.00114
287.68867 0.00085 0.00085 0.00068 0.00136 0.00051 0.00115
287.69816 0.00034 0.00119 0.00256 0.00068 0.00119 0.00115
287.70762 0.00257 0.00000 0.00103 0.00137 0.00445 0.00114
287.71710 0.00170 0.00136 -0.00034 0.00017 0.00119 0.00112
287.72656 0.00120 0.00239 0.00239 0.00154 0.00222 0.00112
287.73603 -0.00034 0.00119 0.00119 0.00222 0.00085 0.00110
287.74549 0.00239 0.00154 0.00171 0.00085 0.00222 0.00110
287.75495 -0.00052 0.00000 -0.00086 0.00052 0.00190 0.00111
287.76442 0.00190 -0.00017 0.00052 -0.00017 0.00241 0.00111
287.77388 0.00309 0.00257 0.00257 0.00257 0.00069 0.00112
287.78334 0.00205 0.00102 0.00188 0.00239 0.00239 0.00110
287.79281 0.00153 0.00136 0.00273 0.00136 0.00187 0.00109
287.80227 0.00119 0.00051 0.00204 0.00255 0.00136 0.00111
287.81173 0.00185 0.00253 0.00101 0.00236 -0.00101 0.00108
287.82123 0.00185 0.00152 -0.00067 0.00236 0.00067 0.00108
287.83069 0.00051 0.00068 0.00034 0.00102 0.00051 0.00104
287.84015 0.00084 0.00101 0.00051 -0.00034 0.00253 0.00108
287.84962 0.00000 0.00068 0.00220 -0.00102 0.00187 0.00107
287.85908 0.00186 0.00186 -0.00034 0.00152 -0.00068 0.00107
287.86854 0.00134 0.00034 0.00134 0.00101 0.00184 0.00106
287.87801 -0.00050 0.00134 -0.00117 0.00151 0.00201 0.00106
287.88747 -0.00067 -0.00067 0.00134 0.00034 0.00185 0.00108
287.89694 -0.00083 0.00050 0.00033 -0.00166 0.00083 0.00107
287.90640 0.00451 -0.00050 0.00134 0.00201 0.00167 0.00110
287.91587 0.00233 0.00116 0.00083 0.00266 0.00100 0.00108
287.92534 0.00033 0.00066 -0.00066 0.00050 0.00133 0.00106
287.93480 -0.00167 0.00067 -0.00284 0.00033 -0.00017 0.00107
287.94423 0.00100 -0.00100 0.00116 0.00000 -0.00116 0.00105
287.95370 0.00432 0.00166 -0.00050 -0.00083 0.00216 0.00106
287.96316 0.00201 0.00050 0.00000 0.00100 0.00017 0.00104
287.97262 0.00033 0.00250 0.00083 0.00000 0.00317 0.00103
287.98209 0.00286 0.00219 0.00252 0.00050 0.00168 0.00103
287.99155 0.00000 -0.00199 -0.00066 -0.00083 0.00017 0.00103
288.00101 0.00116 0.00083 0.00233 0.00266 0.00066 0.00101
288.01048 -0.00084 0.00252 0.00252 0.00202 0.00286 0.00105
288.01994 0.00117 0.00100 0.00000 0.00067 0.00050 0.00103
288.02940 0.00134 0.00134 0.00319 0.00151 0.00017 0.00102
288.03887 0.00369 0.00185 0.00084 0.00201 0.00017 0.00101
288.04833 0.00017 0.00284 0.00033 -0.00167 0.00117 0.00085
288.05780 0.00199 0.00299 0.00266 0.00166 0.00149 0.00083
288.06723 0.00100 0.00183 0.00083 0.00100 0.00166 0.00100
288.07669 0.00000 0.00300 0.00033 0.00250 0.00300 0.00102
288.08616 -0.00033 0.00083 0.00134 0.00083 0.00050 0.00102
288.09562 0.00216 0.00316 0.00083 0.00083 0.00399 0.00100
288.10508 0.00480 0.00397 0.00413 0.00265 0.00628 0.00101
288.11455 0.00364 0.00149 0.00066 0.00265 0.00265 0.00099
288.12401 0.00299 0.00283 0.00183 0.00133 0.00150 0.00100
288.13347 0.00050 0.00116 0.00298 0.00116 0.00000 0.00104
288.14291 0.00116 -0.00099 0.00066 -0.00017 0.00033 0.00100
288.15237 0.00132 0.00083 0.00331 0.00248 0.00232 0.00099
288.16184 0.00116 0.00083 0.00349 0.00083 0.00199 0.00098
288.17131 0.00150 -0.00184 -0.00201 -0.00050 -0.00017 0.00100
288.18077 0.00218 0.00151 0.00168 0.00000 0.00185 0.00099
288.19020 0.00117 0.00000 0.00133 -0.00017 0.00033 0.00098
288.19967 0.00150 0.00382 0.00050 0.00150 0.00299 0.00097
288.20913 0.00134 0.00251 0.00000 -0.00084 0.00100 0.00099
288.21860 -0.00050 0.00050 -0.00067 -0.00067 0.00083 0.00097
288.22806 0.00201 0.00117 0.00017 0.00201 0.00251 0.00099
288.23749 0.00118 0.00237 0.00270 0.00051 0.00084 0.00101
288.24696 -0.00034 0.00067 0.00269 0.00168 -0.00034 0.00099
288.25642 -0.00203 -0.00119 0.00102 0.00169 -0.00085 0.00098
288.26588 0.00101 0.00034 0.00051 0.00017 0.00017 0.00098
288.27532 0.00406 0.00135 0.00305 0.00135 0.00305 0.00098
288.28478 -0.00050 -0.00101 -0.00084 -0.00101 -0.00168 0.00099
288.29424 0.00084 -0.00068 0.00186 -0.00101 0.00084 0.00097
288.30371 0.00472 0.00202 0.00202 0.00438 0.00337 0.00098
288.31314 0.00253 -0.00101 0.00101 0.00303 0.00101 0.00097
288.32260 0.00287 0.00253 0.00169 0.00236 0.00421 0.00099
288.33207 0.00050 -0.00017 -0.00017 0.00050 -0.00084 0.00095
288.34153 0.00337 0.00034 0.00202 0.00253 0.00101 0.00097
288.35096 0.00084 0.00117 0.00017 0.00151 -0.00067 0.00092
288.36043 0.00203 0.00203 0.00084 0.00084 0.00068 0.00095
288.36989 0.00000 -0.00218 0.00000 -0.00067 -0.00050 0.00087
288.37933 0.00269 0.00387 0.00404 0.00320 0.00253 0.00095
288.38879 0.00135 0.00169 0.00135 0.00219 0.00118 0.00095
288.39825 0.00135 0.00135 0.00135 0.00237 0.00051 0.00097
288.40769 0.00202 0.00202 0.00101 0.00051 0.00067 0.00096
288.41715 0.00119 -0.00102 -0.00051 0.00051 0.00170 0.00096
288.42661 -0.00068 -0.00152 0.00051 -0.00101 0.00000 0.00096
288.43605 0.00237 0.00118 0.00051 0.00152 0.00085 0.00095
288.44551 0.00117 0.00134 0.00336 0.00050 0.00101 0.00096
288.45498 0.00067 0.00168 0.00168 -0.00034 0.00017 0.00097
288.46442 0.00084 0.00101 0.00067 0.00134 -0.00034 0.00098
288.47388 0.00336 0.00319 0.00202 0.00404 0.00269 0.00093
288.48331 -0.00101 0.00050 0.00034 0.00101 0.00017 0.00093
288.49278 0.00203 0.00253 0.00237 0.00405 0.00051 0.00095
288.50224 0.00319 0.00235 0.00185 0.00134 0.00101 0.00095
288.51168 0.00101 0.00236 0.00253 0.00169 0.00253 0.00093
288.52114 0.00437 0.00151 0.00202 0.00353 0.00218 0.00094
288.53060 0.00084 -0.00050 -0.00050 0.00017 -0.00134 0.00093
288.54004 -0.00034 -0.00102 -0.00068 -0.00220 -0.00187 0.00093
288.54950 -0.00017 0.00034 -0.00168 -0.00050 -0.00084 0.00094
288.55893 0.00102 0.00153 0.00000 -0.00051 -0.00051 0.00094
288.56840 0.00624 0.00337 0.00388 0.00405 0.00371 0.00094
288.57783 0.00405 0.00270 0.00185 0.00017 0.00236 0.00093
288.58729 0.00287 0.00355 0.00389 0.00338 -0.00034 0.00087
288.59673 -0.00017 -0.00034 0.00101 -0.00067 0.00034 0.00079
288.60619 0.00101 0.00337 0.00084 0.00303 0.00168 0.00091
288.61565 0.00423 -0.00051 0.00034 0.00152 0.00169 0.00095
288.62509 0.00118 0.00000 -0.00101 0.00068 0.00000 0.00094
288.63455 -0.00136 -0.00187 -0.00085 -0.00170 0.00034 0.00093
288.64398 -0.00017 0.00035 -0.00017 0.00225 0.00000 0.00096
288.65345 -0.00109 -0.00018 -0.00218 0.00018 -0.00018 0.00099
