Date and Time:                Fri Oct 7 12:48:24.000 2022
Software Version:             4.31.30023.0
Temperature (C):              -40
Model:                        DU940P_BU2
Data Type:                    Counts
Acquisition Mode:             Single Scan
Trigger Mode:                 Internal
Exposure Time (secs):         40
Readout Mode:                 Full Vertical Binning
Horizontal binning:           1
Extended Dynamic Range:       off
Horizontally flipped:         false
Vertical Shift Speed (usecs): 14.51
Pixel Readout Rate (MHz):     3
Baseline Clamp:               ON
Clock Amplitude:              Normal
Output Amplifier:             High Capacity
Serial Number:                23634
Pre-Amplifier Gain:           1.000000
Spurious Noise Filter Mode:   No Filter
Photon counted:               false
Data Averaging Filter Mode:   No Filter
SR500i:
Serial Number:                
Wavelength (nm):              200
Grating Groove Density (l/mm):1199.47
Grating Blaze:                500
Output Flipper Port:          Direct
Accessory Output Port 1:      Off
Accessory Output Port 2:      Off
Accessory Output Port 3:      Off
Accessory Input Port:         On



177.97206	552
177.99368	536
178.0153	528
178.03691	526
178.05853	538
178.08015	534
178.10176	534
178.12338	527
178.145	529
178.16661	533
178.18823	526
178.20985	533
178.23146	524
178.25308	528
178.27469	522
178.29631	522
178.31793	535
178.33954	521
178.36116	543
178.38277	518
178.40439	537
178.42599	527
178.44762	538
178.46922	524
178.49084	524
178.51245	535
178.53407	516
178.55568	521
178.5773	515
178.59891	518
178.62053	512
178.64214	521
178.66376	524
178.68536	519
178.70697	525
178.72859	527
178.7502	525
178.77182	531
178.79343	529
178.81503	521
178.83665	517
178.85826	584
178.87987	567
178.90149	529
178.9231	515
178.9447	520
178.96631	522
178.98793	520
179.00954	526
179.03114	521
179.05275	523
179.07437	524
179.09598	514
179.11758	521
179.13919	522
179.16081	528
179.18242	525
179.20403	529
179.22563	521
179.24724	519
179.26884	528
179.29047	520
179.31207	530
179.33368	525
179.35529	536
179.37689	520
179.3985	520
179.4201	524
179.44171	530
179.46332	523
179.48492	525
179.50653	527
179.52814	538
179.54974	529
179.57135	534
179.59296	524
179.61456	529
179.63617	509
179.65778	510
179.67938	517
179.70099	517
179.7226	529
179.7442	519
179.76581	524
179.78741	515
179.80902	522
179.83063	528
179.85223	531
179.87383	524
179.89543	530
179.91704	516
179.93864	522
179.96025	518
179.98186	527
180.00345	517
180.02505	517
180.04666	524
180.06827	520
180.08986	510
180.11147	515
180.13307	522
180.15468	514
180.17627	510
180.19788	518
180.21948	509
180.24107	517
180.26268	522
180.28429	517
180.30589	522
180.32748	533
180.34909	513
180.37068	514
180.39229	514
180.41389	509
180.43549	524
180.45709	523
180.47868	519
180.50029	517
180.5219	521
180.54349	524
180.56509	515
180.58669	513
180.60829	523
180.62988	514
180.65149	516
180.67308	531
180.69469	514
180.71628	523
180.73788	513
180.75948	519
180.78107	519
180.80267	519
180.82426	522
180.84587	525
180.86746	526
180.88905	514
180.91066	514
180.93225	510
180.95386	514
180.97545	511
180.99704	517
181.01865	518
181.04024	519
181.06183	512
181.08342	507
181.10503	524
181.12662	508
181.14821	515
181.16982	502
181.19141	527
181.213	514
181.23459	513
181.25618	509
181.27779	507
181.29938	509
181.32097	510
181.34256	511
181.36415	512
181.38576	506
181.40735	512
181.42894	533
181.45053	513
181.47212	513
181.49371	522
181.5153	515
181.5369	517
181.55849	516
181.58008	511
181.60167	509
181.62326	516
181.64485	499
181.66646	508
181.68805	512
181.70964	521
181.73122	516
181.75281	521
181.7744	507
181.79599	510
181.81758	514
181.83917	531
181.86076	513
181.88235	513
181.90395	526
181.92554	515
181.94713	525
181.96872	512
181.9903	515
182.01189	513
182.03348	521
182.05507	514
182.07666	521
182.09825	514
182.11983	522
182.14142	521
182.16301	505
182.1846	519
182.20618	514
182.22777	510
182.24936	520
182.27095	520
182.29253	513
182.31412	518
182.33571	515
182.35728	515
182.37888	518
182.40047	507
182.42204	524
182.44363	514
182.46523	519
182.4868	524
182.50839	521
182.52998	516
182.55156	525
182.57315	508
182.59473	511
182.61632	514
182.63789	508
182.65948	513
182.68106	504
182.70265	522
182.72423	503
182.74582	520
182.7674	517
182.78899	514
182.81056	520
182.83215	516
182.85373	514
182.87532	509
182.8969	507
182.91849	505
182.94006	523
182.96164	516
182.98323	509
183.00481	564
183.02638	499
183.04797	521
183.06955	511
183.09113	517
183.11272	510
183.13429	517
183.15587	511
183.17746	510
183.19904	527
183.22061	512
183.24219	507
183.26378	516
183.28535	512
183.30693	514
183.32851	506
183.35008	516
183.37167	509
183.39325	519
183.41483	510
183.4364	510
183.45798	518
183.47955	507
183.50114	502
183.52272	501
183.5443	515
183.56587	506
183.58745	516
183.60902	515
183.6306	512
183.65218	506
183.67375	530
183.69533	512
183.7169	507
183.73848	512
183.76006	507
183.78163	510
183.80321	516
183.82478	507
183.84636	503
183.86794	506
183.88951	510
183.91109	498
183.93266	502
183.95424	513
183.97581	510
183.99738	508
184.01895	508
184.04053	499
184.0621	498
184.08368	504
184.10526	505
184.12682	506
184.14839	509
184.16997	493
184.19154	499
184.21312	507
184.23468	509
184.25626	498
184.27783	498
184.29941	500
184.32097	494
184.34254	505
184.36412	503
184.38568	500
184.40726	502
184.42883	509
184.45039	510
184.47197	502
184.49355	504
184.51511	503
184.53668	497
184.55824	500
184.57982	510
184.60139	503
184.62296	500
184.64453	517
184.66609	510
184.68767	503
184.70923	502
184.7308	489
184.75237	505
184.77394	501
184.7955	500
184.81708	501
184.83864	496
184.86021	495
184.88177	501
184.90335	501
184.92491	510
184.94647	494
184.96805	492
184.98961	496
185.01118	493
185.03275	493
185.05431	508
185.07588	493
185.09744	492
185.119	501
185.14058	516
185.16214	495
185.1837	497
185.20526	499
185.22684	508
185.2484	502
185.26996	515
185.29152	495
185.3131	502
185.33466	503
185.35622	500
185.37778	527
185.39934	508
185.42091	496
185.44247	502
185.46404	490
185.4856	493
185.50716	495
185.52872	494
185.55028	481
185.57184	498
185.5934	489
185.61497	493
185.63654	503
185.6581	498
185.67966	500
185.70122	496
185.72278	494
185.74434	489
185.7659	487
185.78746	493
185.80902	493
185.83058	496
185.85214	491
185.87369	482
185.89525	495
185.91681	492
185.93837	490
185.95993	494
185.98149	492
186.00305	496
186.02461	497
186.04617	483
186.06772	498
186.08928	491
186.11084	487
186.1324	495
186.15396	499
186.17551	493
186.19707	502
186.21863	487
186.24019	485
186.26173	479
186.28329	485
186.30486	483
186.32642	485
186.34796	498
186.36952	483
186.39108	511
186.41263	490
186.43419	493
186.45575	479
186.47729	486
186.49886	488
186.5204	488
186.54196	478
186.56352	491
186.58507	489
186.60663	489
186.62817	492
186.64973	488
186.67128	535
186.69284	492
186.71439	490
186.73595	500
186.75749	495
186.77905	481
186.8006	495
186.82216	491
186.8437	489
186.86526	477
186.88681	488
186.90836	493
186.92992	482
186.95146	489
186.97302	499
186.99457	491
187.01611	493
187.03767	494
187.05922	480
187.08076	486
187.10233	506
187.12387	500
187.14542	487
187.16696	497
187.18852	495
187.21007	490
187.23161	487
187.25316	491
187.27472	502
187.29626	499
187.31781	494
187.33936	486
187.3609	506
187.38246	496
187.40401	502
187.42555	500
187.4471	498
187.46864	500
187.49019	483
187.51173	501
187.53328	504
187.55482	520
187.57637	499
187.59793	502
187.61948	504
187.64102	511
187.66257	490
187.68411	502
187.70566	504
187.7272	528
187.74875	483
187.77029	516
187.79182	517
187.81337	505
187.83492	510
187.85646	514
187.87801	505
187.89955	513
187.9211	504
187.94264	506
187.96419	507
187.98572	493
188.00726	503
188.02881	490
188.05035	483
188.0719	501
188.09344	491
188.11497	481
188.13652	497
188.15807	496
188.17961	484
188.20114	479
188.22269	487
188.24423	488
188.26576	494
188.28731	489
188.30885	487
188.33038	485
188.35193	507
188.37347	502
188.395	496
188.41655	507
188.4381	487
188.45963	492
188.48117	576
188.5027	505
188.52425	509
188.54578	486
188.56732	506
188.58887	493
188.6104	517
188.63194	521
188.65347	505
188.67502	508
188.69655	524
188.71809	498
188.73962	504
188.76115	513
188.7827	512
188.80423	517
188.82578	513
188.84731	514
188.86884	515
188.89038	500
188.91191	501
188.93344	502
188.95499	527
188.97652	513
188.99805	526
189.01959	538
189.04112	554
189.06265	557
189.0842	507
189.10573	509
189.12726	507
189.14879	529
189.17033	540
189.19186	532
189.21339	536
189.23492	540
189.25645	536
189.27798	546
189.29953	526
189.32106	514
189.34259	521
189.36412	525
189.38565	541
189.40718	546
189.42871	541
189.45024	544
189.47177	553
189.4933	550
189.51485	554
189.53638	543
189.55791	521
189.57944	544
189.60097	542
189.6225	552
189.64403	549
189.66554	545
189.68707	547
189.7086	565
189.73013	557
189.75166	560
189.77319	547
189.79472	553
189.81625	544
189.83778	530
189.85931	542
189.88083	543
189.90236	541
189.92389	543
189.94542	536
189.96695	527
189.98846	545
190.00999	537
190.03152	511
190.05305	488
190.07457	485
190.0961	490
190.11763	495
190.13916	485
190.16068	499
190.18221	496
190.20374	499
190.22525	500
190.24678	513
190.26831	528
190.28983	517
190.31136	501
190.33287	498
190.3544	521
190.37593	550
190.39745	556
190.41898	512
190.44049	497
190.46202	507
190.48354	534
190.50507	558
190.52658	562
190.54811	541
190.56963	516
190.59116	509
190.61267	548
190.6342	576
190.65572	568
190.67723	585
190.69876	560
190.72028	537
190.74181	521
190.76332	546
190.78484	567
190.80637	579
190.82788	575
190.8494	583
190.87093	593
190.89244	562
190.91396	536
190.93547	540
190.957	593
190.97852	596
191.00003	600
191.02155	603
191.04308	603
191.06459	588
191.08611	585
191.10762	546
191.12914	549
191.15067	606
191.17218	608
191.1937	625
191.21521	632
191.23672	614
191.25824	631
191.27975	612
191.30127	610
191.32278	592
191.3443	576
191.36581	606
191.38734	616
191.40886	637
191.43037	632
191.45189	634
191.47339	641
191.4949	639
191.51642	642
191.53793	639
191.55945	659
191.58096	620
191.60248	629
191.62399	650
191.64551	651
191.66702	656
191.68854	650
191.71004	652
191.73155	641
191.75307	637
191.77458	630
191.7961	660
191.81761	642
191.83911	634
191.86063	640
191.88214	650
191.90366	644
191.92516	642
191.94667	659
191.96819	684
191.98969	672
192.0112	657
192.03271	668
192.05421	680
192.07573	681
192.09724	689
192.11874	647
192.14026	643
192.16177	652
192.18327	642
192.20479	576
192.22629	530
192.2478	538
192.2693	532
192.29082	555
192.31232	535
192.33383	556
192.35533	596
192.37685	567
192.39835	539
192.41986	588
192.44136	632
192.46288	597
192.48438	558
192.50589	584
192.52739	649
192.54889	682
192.5704	667
192.5919	599
192.6134	565
192.63492	621
192.65642	691
192.67792	711
192.69943	705
192.72093	645
192.74243	581
192.76395	617
192.78545	695
192.80695	733
192.82845	749
192.84996	733
192.87146	694
192.89296	631
192.91446	644
192.93596	725
192.95746	756
192.97897	778
193.00047	782
193.02197	792
193.04347	771
193.06497	707
193.08647	669
193.10797	719
193.12947	779
193.15097	803
193.17247	820
193.19397	833
193.21547	818
193.23697	818
193.25847	783
193.27997	737
193.30147	778
193.32297	817
193.34447	842
193.36597	874
193.38747	856
193.40897	861
193.43047	860
193.45197	861
193.47346	856
193.49496	804
193.51645	798
193.53795	851
193.55945	874
193.58095	878
193.60245	892
193.62393	889
193.64543	883
193.66693	893
193.68843	896
193.70992	883
193.73141	821
193.75291	832
193.77441	858
193.7959	890
193.8174	880
193.8389	887
193.86038	911
193.88188	911
193.90338	878
193.92487	905
193.94637	924
193.96785	929
193.98935	897
194.01085	890
194.03233	897
194.05383	961
194.07532	962
194.09682	960
194.1183	921
194.1398	931
194.16129	956
194.18279	970
194.20427	974
194.22577	972
194.24725	948
194.26874	935
194.29024	951
194.31172	981
194.33322	983
194.35471	1008
194.37619	1003
194.39769	1038
194.41917	996
194.44066	994
194.46216	999
194.48364	1000
194.50513	964
194.52663	858
194.54811	815
194.5696	800
194.59108	834
194.61258	840
194.63406	782
194.65555	898
194.67703	916
194.69852	830
194.72	844
194.7415	958
194.76299	988
194.78447	903
194.80595	829
194.82744	915
194.84892	1001
194.87041	1033
194.89189	987
194.91338	884
194.93486	900
194.95636	1008
194.97784	1057
194.99933	1093
195.02081	1064
195.0423	960
195.06377	916
195.08525	983
195.10674	1071
195.12822	1105
195.1497	1113
195.17119	1099
195.19267	1044
195.21416	993
195.23564	1004
195.25713	1074
195.27859	1100
195.30008	1119
195.32156	1144
195.34305	1135
195.36453	1095
195.38602	1074
195.40749	1056
195.42897	1097
195.45045	1146
195.47194	1140
195.49341	1176
195.51489	1153
195.53638	1162
195.55785	1150
195.57933	1130
195.60081	1108
195.62228	1105
195.64377	1157
195.66525	1179
195.68672	1196
195.70821	1174
195.72968	1183
195.75116	1182
195.77264	1187
195.79411	1180
195.8156	1162
195.83707	1154
195.85855	1175
195.88002	1167
195.9015	1183
195.92297	1219
195.94446	1204
195.96593	1204
195.98741	1212
196.00888	1229
196.03035	1193
196.05183	1198
196.0733	1215
196.09479	1226
196.11626	1221
196.13773	1217
196.15921	1232
196.18068	1261
196.20215	1275
196.22363	1287
196.2451	1273
196.26657	1247
196.28804	1270
196.30952	1276
196.33099	1269
196.35246	1301
196.37393	1295
196.3954	1300
196.41689	1290
196.43835	1326
196.45982	1319
196.48129	1333
196.50276	1312
196.52423	1315
196.54572	1318
196.56718	1311
196.58865	1324
196.61012	1335
196.63159	1326
196.65306	1339
196.67453	1349
196.696	1332
196.71747	1343
196.73894	1339
196.76041	1326
196.78188	1335
196.80334	1358
196.82481	1369
196.84628	1384
196.86775	1388
196.88922	1391
196.91069	1379
196.93214	1394
196.95361	1384
196.97508	1365
196.99655	1296
197.01802	1281
197.03949	1276
197.06096	1322
197.08241	1297
197.10388	1300
197.12535	1377
197.14682	1371
197.16827	1300
197.18974	1320
197.21121	1395
197.23268	1401
197.25414	1324
197.2756	1315
197.29707	1371
197.31853	1437
197.34	1425
197.36147	1390
197.38292	1364
197.40439	1382
197.42584	1436
197.44731	1474
197.46878	1477
197.49023	1455
197.5117	1430
197.53316	1408
197.55463	1458
197.57608	1502
197.59755	1521
197.619	1503
197.64047	1527
197.66193	1516
197.6834	1496
197.70485	1500
197.7263	1536
197.74777	1562
197.76923	1585
197.7907	1572
197.81215	1567
197.8336	1564
197.85507	1536
197.87653	1552
197.89798	1567
197.91945	1582
197.9409	1600
197.96236	1621
197.98383	1621
198.00528	1624
198.02673	1609
198.04819	1633
198.06966	1608
198.09111	1613
198.11256	1645
198.13402	1658
198.15547	1655
198.17693	1648
198.19839	1630
198.21985	1638
198.2413	1627
198.26276	1638
198.28421	1638
198.30566	1652
198.32712	1664
198.34857	1669
198.37003	1678
198.39148	1687
198.41293	1703
198.43439	1704
198.45584	1701
198.47729	1700
198.49875	1710
198.5202	1714
198.54166	1729
198.56311	1753
198.58456	1781
198.60602	1797
198.62747	1785
198.64893	1809
198.67036	1799
198.69182	1818
198.71327	1810
198.73473	1836
198.75618	1865
198.77763	1869
198.79907	1879
198.82053	1870
198.84198	1880
198.86343	1886
198.88487	1895
198.90633	1945
198.92778	1932
198.94922	1943
198.97067	1942
198.99213	1929
199.01357	1928
199.03502	1923
199.05647	1947
199.07791	1957
199.09937	1983
199.12082	2005
199.14226	2017
199.16371	2001
199.18515	2013
199.2066	2034
199.22804	2037
199.2495	2032
199.27094	2063
199.29239	2072
199.31383	2062
199.33528	2088
199.35672	2071
199.37817	2108
199.39961	2105
199.42105	2107
199.4425	2119
199.46394	2137
199.4854	2132
199.50684	2131
199.52827	2132
199.54973	2134
199.57117	2126
199.59261	2132
199.61406	2119
199.6355	2133
199.65694	2127
199.67838	2148
199.69983	2162
199.72127	2124
199.74271	2216
199.76414	2220
199.78558	2223
199.80704	2234
199.82848	2247
199.84991	2274
199.87135	2296
199.89279	2301
199.91423	2284
199.93567	2321
199.95712	2308
199.97856	2306
200	2302
200.02144	2316
200.04288	2390
200.06432	2471
200.08575	2418
200.10719	2408
200.12863	2407
200.15007	2424
200.17151	2444
200.19295	2464
200.21439	2533
200.23581	2528
200.25725	2560
200.27869	2535
200.30013	2554
200.32156	2570
200.343	2562
200.36444	2570
200.38588	2564
200.4073	2600
200.42874	2608
200.45018	2612
200.47162	2611
200.49304	2594
200.51448	2621
200.53592	2648
200.55736	2680
200.57878	2704
200.60022	2683
200.62166	2703
200.64308	2704
200.66452	2681
200.68596	2698
200.70738	2708
200.72882	2701
200.75026	2778
200.77168	2768
200.79312	2781
200.81454	2775
200.83598	2804
200.85741	2834
200.87885	2813
200.90027	2838
200.92171	2846
200.94313	2862
200.96457	2882
200.98599	2896
201.00743	2919
201.02885	2908
201.05029	2925
201.07172	2936
201.09314	2971
201.11458	2968
201.136	2940
201.15744	2976
201.17886	3001
201.20029	3023
201.22173	3043
201.24315	3065
201.26457	3084
201.286	3101
201.30743	3096
201.32886	3101
201.35028	3092
201.3717	3110
201.39314	3112
201.41457	3111
201.43599	3093
201.45741	3138
201.47884	3136
201.50026	3136
201.5217	3134
201.54312	3146
201.56454	3158
201.58597	3162
201.60739	3142
201.62881	3162
201.65024	3189
201.67166	3195
201.69308	3251
201.71451	3249
201.73593	3271
201.75735	3274
201.77878	3288
201.8002	3274
201.82162	3296
201.84305	3354
201.86447	3336
201.88589	3359
201.90732	3360
201.92873	3366
201.95015	3338
201.97157	3401
201.993	3407
202.01442	3457
202.03584	3479
202.05725	3476
202.07867	3501
202.1001	3466
202.12152	3508
202.14293	3491
202.16435	3550
202.18578	3572
202.2072	3620
202.22861	3594
202.25003	3631
202.27145	3642
202.29286	3633
202.31429	3652
202.33571	3715
202.35712	3682
202.37854	3692
202.39995	3697
202.42137	3752
202.44278	3731
202.4642	3735
202.48563	3773
202.50703	3732
202.52846	3788
202.54987	3774
202.57129	3758
202.5927	3805
202.61411	3822
202.63553	3847
202.65694	3878
202.67836	3887
202.69977	3883
202.72119	3940
202.7426	3918
202.76401	3961
202.78543	3950
202.80684	3999
202.82825	3995
202.84967	4004
202.87108	4005
202.89249	4010
202.91389	4019
202.93532	4067
202.95673	4114
202.97813	4097
202.99954	4108
203.02095	4091
203.04237	4099
203.06378	4099
203.08519	4114
203.1066	4173
203.12801	4189
203.14941	4207
203.17082	4216
203.19225	4222
203.21365	4292
203.23506	4283
203.25647	4281
203.27788	4331
203.29929	4335
203.32069	4341
203.3421	4351
203.36351	4357
203.38492	4434
203.40633	4447
203.42773	4414
203.44914	4490
203.47054	4529
203.49194	4563
203.51335	4538
203.53476	4548
203.55617	4589
203.57758	4612
203.59898	4575
203.62038	4631
203.64178	4698
203.66319	4704
203.6846	4739
203.70601	4718
203.7274	4722
203.74881	4760
203.77022	4754
203.79163	4775
203.81302	4814
203.83443	4844
203.85583	4858
203.87723	4860
203.89864	4901
203.92003	4949
203.94144	4937
203.96284	4967
203.98424	4994
204.00565	5004
204.02704	4992
204.04845	5030
204.06985	5007
204.09125	5087
204.11266	5074
204.13405	5123
204.15546	5131
204.17685	5162
204.19824	5193
204.21965	5243
204.24104	5212
204.26245	5200
204.28384	5200
204.30524	5232
204.32664	5240
204.34804	5209
204.36945	5235
204.39084	5286
204.41223	5312
204.43362	5352
204.45503	5291
204.47643	5385
204.49782	5352
204.51923	5380
204.54062	5414
204.56201	5532
204.5834	5548
204.6048	5578
204.62621	5617
204.6476	5626
204.66899	5649
204.69038	5648
204.71178	5654
204.73317	5756
204.75456	5803
204.77596	5744
204.79736	5811
204.81876	5807
204.84015	5856
204.86154	5866
204.88293	5958
204.90433	5979
204.92572	6019
204.94711	6078
204.96851	6072
204.9899	6093
205.01128	6129
205.03267	6214
205.05406	6261
205.07545	6325
205.09685	6394
205.11824	6452
205.13963	6495
205.16103	6450
205.1824	6493
205.2038	6563
205.22519	6576
205.24658	6625
205.26797	6618
205.28935	6678
205.31075	6686
205.33214	6721
205.35352	6751
205.37491	6782
205.3963	6818
205.41769	6803
205.43907	6876
205.46046	6892
205.48184	6932
205.50323	6975
205.52463	6991
205.54601	7056
205.5674	7107
205.58878	7180
205.61017	7268
205.63155	7276
205.65294	7307
205.67432	7306
205.69571	7308
205.71709	7352
205.73848	7377
205.75986	7371
205.78125	7454
205.80263	7441
205.82402	7505
205.8454	7561
205.86678	7573
205.88817	7662
205.90955	7669
205.93092	7770
205.95232	7797
205.97369	7851
205.99507	7854
206.01646	7965
206.03784	8027
206.05922	8044
206.0806	8079
206.10199	8202
206.12337	8220
206.14474	8236
206.16612	8267
206.1875	8343
206.20889	8358
206.23027	8376
206.25165	8394
206.27303	8480
206.2944	8493
206.31578	8491
206.33716	8576
206.35854	8687
206.37991	8773
206.40129	8806
206.42267	8793
206.44405	8908
206.46542	8945
206.4868	8972
206.50818	9040
206.52956	9164
206.55093	9241
206.57231	9284
206.59369	9340
206.61507	9410
206.63644	9435
206.65782	9441
206.6792	9490
206.70056	9586
206.72194	9631
206.74332	9624
206.76469	9711
206.78607	9742
206.80743	9786
206.82881	9814
206.85019	9834
206.87157	9784
206.89293	9855
206.91431	9927
206.93568	10016
206.95705	10099
206.97842	10125
206.9998	10148
207.02116	10274
207.04254	10359
207.0639	10346
207.08528	10451
207.10666	10487
207.12802	10566
207.1494	10618
207.17076	10671
207.19214	10700
207.2135	10764
207.23488	10821
207.25624	10817
207.27762	10825
207.29898	10903
207.32034	10988
207.34172	11034
207.36308	11116
207.38446	11166
207.40582	11205
207.42719	11126
207.44856	11154
207.46992	11177
207.49129	11277
207.51266	11303
207.53403	11418
207.55539	11474
207.57677	11598
207.59813	11561
207.61949	11558
207.64085	11615
207.66222	11684
207.68359	11660
207.70496	11820
207.72632	11837
207.74768	11879
207.76904	11921
207.79041	11999
207.81177	12105
207.83315	12251
207.85451	12310
207.87587	12304
207.89723	12332
207.91859	12426
207.93996	12424
207.96132	12476
207.98268	12575
208.00404	12658
208.02541	12697
208.04677	12723
208.06813	12797
208.08949	12910
208.11084	13042
208.1322	13009
208.15356	13088
208.17493	13133
208.19629	13197
208.21765	13314
208.23901	13426
208.26036	13505
208.28172	13552
208.30309	13533
208.32445	13563
208.34581	13597
208.36716	13640
208.38852	13805
208.40988	13984
208.43123	13986
208.45259	14033
208.47395	14086
208.4953	14241
208.51666	14253
208.53802	14353
208.55937	14429
208.58073	14508
208.60208	14659
208.62344	14653
208.64481	14650
208.66615	14741
208.68752	14860
208.70886	14799
208.73022	14939
208.75157	15084
208.77293	15118
208.79428	15136
208.81563	15121
208.83699	15080
208.85834	15086
208.8797	15073
208.90105	15172
208.92239	15267
208.94376	15355
208.9651	15371
208.98645	15420
209.00781	15514
209.02916	15618
209.05051	15743
209.07187	15733
209.09322	15837
209.11456	15847
209.13591	15910
209.15726	15865
209.17862	15921
209.19997	16008
209.22131	16098
209.24266	16088
209.26401	16298
209.28535	16492
209.30672	16736
209.32806	16679
209.34941	16615
209.37076	16688
209.39211	16735
209.41345	16792
209.4348	16955
209.45615	17071
209.47749	17254
209.49884	17310
209.52019	17364
209.54153	17373
209.56288	17443
209.58423	17511
209.60558	17584
209.62691	17724
209.64825	17807
209.6696	17844
209.69095	17855
209.7123	18022
209.73364	18198
209.75497	18127
209.77632	18182
209.79767	18214
209.81902	18203
209.84036	18252
209.86169	18265
209.88304	18397
209.90439	18456
209.92572	18655
209.94707	18714
209.96841	18829
209.98975	18886
210.01109	18983
210.03244	19081
210.05377	19134
210.07512	19147
210.09645	19074
210.1178	19162
210.13913	19169
210.16048	19311
210.18182	19358
210.20316	19406
210.2245	19551
210.24583	19486
210.26717	19589
210.28851	19604
210.30984	19616
210.33119	19729
210.35252	19948
210.37387	20262
210.3952	20463
210.41653	20488
210.43788	20565
210.45921	20514
210.48055	20519
210.50189	20565
210.52322	20661
210.54456	20814
210.56589	20940
210.58723	21038
210.60857	21062
210.6299	21122
210.65123	21091
210.67256	21182
210.69391	21197
210.71524	21553
210.73657	21773
210.7579	21867
210.77924	21895
210.80057	21911
210.8219	21860
210.84323	22096
210.86456	22282
210.88589	22493
210.90723	22671
210.92856	22761
210.94989	22787
210.97122	22870
210.99255	23055
211.01389	23125
211.03522	23231
211.05655	23303
211.07788	23310
211.09921	23274
211.12054	23224
211.14188	23335
211.16321	23368
211.18452	23368
211.20586	23427
211.22719	23475
211.24852	23641
211.26985	23746
211.29117	23854
211.3125	23930
211.33383	24133
211.35515	24329
211.37648	24559
211.39781	24774
211.41914	24867
211.44046	24887
211.46179	25028
211.48311	25093
211.50444	25096
211.52577	25130
211.54709	25358
211.56842	25469
211.58974	25419
211.61107	25348
211.63239	25352
211.65372	25602
211.67503	25732
211.69637	25924
211.71768	25871
211.73901	26065
211.76033	26068
211.78166	26115
211.80298	26259
211.82431	26506
211.84563	26700
211.86694	26764
211.88828	26884
211.90959	26978
211.93091	27006
211.95224	26878
211.97356	27099
211.99487	27147
212.01619	27182
212.03752	27407
212.05884	27454
212.08015	27498
212.10147	27508
212.12279	27489
212.14412	27691
212.16544	27951
212.18675	28118
212.20807	28246
212.22939	28137
212.2507	28139
212.27202	28163
212.29333	28434
212.31465	28664
212.33597	28844
212.35728	29107
212.3786	29287
212.39992	29141
212.42123	29289
212.44255	29403
212.46387	29593
212.48518	29725
212.5065	29830
212.52782	29871
212.54913	29869
212.57045	29964
212.59177	30168
212.61308	30269
212.63438	30174
212.6557	30105
212.67702	30060
212.69833	30396
212.71965	30549
212.74095	30768
212.76227	30937
212.78358	30977
212.8049	31116
212.8262	31532
212.84752	31717
212.86884	31728
212.89014	31779
212.91145	31906
212.93275	31980
212.95407	32053
212.97539	31867
212.99669	32079
213.01801	32180
213.03931	32254
213.06062	32064
213.08192	32236
213.10324	32566
213.12454	32505
213.14586	32905
213.16716	32899
213.18848	33003
213.20978	33165
213.23109	33063
213.2524	33056
213.2737	33265
213.29501	33338
213.31631	33329
213.33762	33652
213.35893	33920
213.38023	34081
213.40154	33912
213.42285	34165
213.44415	34491
213.46545	34308
213.48676	34501
213.50807	34546
213.52937	34837
213.55067	34941
213.57198	35075
213.59328	35039
213.61458	35381
213.63589	35707
213.6572	36014
213.6785	36140
213.6998	36027
213.7211	36202
213.7424	36020
213.7637	35901
213.785	36168
213.8063	36055
213.82761	36355
213.84891	36291
213.87021	36687
213.89151	37020
213.91281	37043
213.93411	37335
213.95541	37346
213.97672	37722
213.998	37429
214.0193	37607
214.0406	37673
214.0619	38030
214.08321	37837
214.10451	37944
214.12579	38062
214.14709	38004
214.1684	38005
214.1897	38152
214.21098	38215
214.23228	38610
214.25359	38611
214.27487	38950
214.29617	38922
214.31747	39252
214.33876	39261
214.36006	39730
214.38136	39727
214.40265	40134
214.42395	40125
214.44524	40199
214.46654	40108
214.48782	40360
214.50912	40416
214.53041	40476
214.55171	40945
214.573	41104
214.5943	41006
214.61559	41010
214.63689	41033
214.65817	40768
214.67946	40976
214.70076	41229
214.72205	41160
214.74335	41568
214.76463	41697
214.78592	41958
214.80721	41777
214.82851	42218
214.84979	42210
214.87108	42435
214.89236	42320
214.91367	42507
214.93495	42566
214.95624	42707
214.97752	42629
214.99881	42369
215.02011	42672
215.0414	42531
215.06268	42620
215.08397	43013
215.10526	43293
215.12654	43185
215.14783	43291
215.16911	43402
215.1904	43428
215.21169	43658
215.23297	43619
215.25426	44320
215.27554	44221
215.29683	44235
215.31812	44221
215.3394	44325
215.36069	44450
215.38197	44496
215.40326	44656
215.42453	44524
215.44582	44763
215.4671	44840
215.48839	44661
215.50967	44765
215.53096	45108
215.55223	44720
215.57352	44906
215.5948	45167
215.61609	45095
215.63736	45139
215.65865	45208
215.67993	45466
215.7012	45281
215.72249	45543
215.74377	45659
215.76505	45948
215.78633	45694
215.8076	46035
215.82889	45693
215.85016	46016
215.87144	45922
215.89272	45671
215.914	45636
215.93527	45591
215.95656	45568
215.97783	45563
215.99911	45273
216.02039	45579
216.04167	45465
216.06294	45287
216.08421	45222
216.1055	45105
216.12677	45289
216.14806	45282
216.16933	45581
216.1906	45611
216.21187	45748
216.23315	45851
216.25443	45660
216.2757	45449
216.29697	45409
216.31825	45289
216.33952	45527
216.36079	45057
216.38206	45002
216.40334	45166
216.42462	44859
216.44589	45164
216.46716	44978
216.48843	44745
216.5097	45059
216.53098	45277
216.55225	45460
216.57352	45492
216.59479	45186
216.61606	45399
216.63733	45474
216.6586	45205
216.67987	45730
216.70114	45654
216.72241	45714
216.74368	46004
216.76495	45825
216.78622	45927
216.80748	46032
216.82875	45892
216.85002	45915
216.87129	45918
216.89256	45688
216.91382	45654
216.93509	45538
216.95636	45379
216.97763	45272
216.99889	45097
217.02016	45171
217.04143	44915
217.06268	45042
217.08395	44789
217.10522	45122
217.12648	45263
217.14775	45032
217.16902	45325
217.19028	45359
217.21155	45405
217.2328	45331
217.25407	45473
217.27533	45327
217.2966	45401
217.31786	45450
217.33913	45491
217.36038	45609
217.38165	45419
217.40291	45338
217.42418	45380
217.44543	45108
217.46669	45320
217.48796	45207
217.50922	45512
217.53047	45166
217.55174	45199
217.573	45157
217.59425	45265
217.61552	45214
217.63678	45126
217.65804	45101
217.67929	44961
217.70055	44778
217.72182	44557
217.74307	44841
217.76433	44638
217.78558	44506
217.80684	44569
217.82809	44661
217.84935	44485
217.87062	44750
217.89188	44238
217.91313	44440
217.93439	44382
217.95564	44388
217.9769	44221
217.99815	44285
218.01941	44064
218.04066	44321
218.06192	43896
218.08318	43959
218.10442	44014
218.12567	43687
218.14693	44118
218.16818	44106
218.18944	43869
218.21069	43903
218.23195	44128
218.25319	44061
218.27444	43851
218.2957	43437
218.31696	43430
218.3382	43510
218.35945	43331
218.38071	43157
218.40196	43210
218.4232	43130
218.44446	42832
218.46571	42902
218.48695	42930
218.50821	43085
218.52945	43062
218.5507	42892
218.57196	43063
218.5932	42879
218.61446	42973
218.6357	42738
218.65695	42843
218.67819	42863
218.69945	42517
218.72069	42447
218.74193	42593
218.76318	42437
218.78442	42529
218.80568	42055
218.82692	41852
218.84816	42091
218.86942	41874
218.89066	41881
218.9119	41876
218.93315	42048
218.95439	41846
218.97563	41412
218.99689	41323
219.01813	41105
219.03937	40651
219.06061	40499
219.08185	40438
219.1031	40487
219.12434	40242
219.14558	40258
219.16682	40279
219.18806	40362
219.2093	39914
219.23055	40356
219.25179	39777
219.27303	40194
219.29427	39996
219.31551	40367
219.33675	40271
219.35799	40208
219.37923	40226
219.40047	40290
219.42171	40010
219.44295	40331
219.46419	40112
219.48543	40117
219.50667	40029
219.52791	39804
219.54915	39818
219.57037	39989
219.59161	39888
219.61285	39841
219.63409	39711
219.65532	39857
219.67656	39827
219.6978	39816
219.71904	39714
219.74026	39842
219.76151	39782
219.78275	39938
219.80397	39901
219.82521	39700
219.84645	39741
219.86768	39818
219.88892	39729
219.91014	39507
219.93138	39463
219.95261	39558
219.97385	39569
219.99507	39289
220.01631	39448
220.03754	39146
220.05878	39191
220.08	39407
220.10124	39278
220.12247	39029
220.14371	39252
220.16493	38865
220.18616	38935
220.2074	38834
220.22862	38543
220.24985	38564
220.27109	38695
220.29231	38582
220.31354	38795
220.33476	38412
220.356	38815
220.37723	38561
220.39845	37923
220.41968	38002
220.4409	37785
220.46214	37778
220.48337	37740
220.50459	37838
220.52582	37755
220.54704	37601
220.56827	37638
220.58949	37867
220.61072	38115
220.63194	38067
220.65317	37691
220.67439	37830
220.69562	37735
220.71684	37709
220.73807	37660
220.75929	37494
220.78052	37405
220.80174	37466
220.82297	37514
220.84419	37327
220.8654	37492
220.88663	37459
220.90785	37304
220.92908	37540
220.9503	37281
220.97151	37588
220.99274	37443
221.01396	37777
221.03519	37588
221.0564	37641
221.07762	37532
221.09885	37402
221.12006	37506
221.14128	37309
221.16251	37570
221.18372	37287
221.20494	37549
221.22615	37443
221.24738	37481
221.2686	37435
221.28981	37559
221.31104	37281
221.33224	37434
221.35347	37147
221.37468	37122
221.3959	37000
221.41711	36908
221.43832	36771
221.45955	36907
221.48076	36976
221.50198	37289
221.52319	36986
221.5444	37042
221.56563	37097
221.58684	36736
221.60805	37006
221.62926	36675
221.65048	36888
221.67169	36818
221.6929	36778
221.71411	36806
221.73532	36804
221.75655	36546
221.77776	36577
221.79897	36387
221.82018	36027
221.84138	34926
