# Columns are Wavelength, tx_c, tx_t, tx_l, tx_r, tx_b
269.96500 0.00314 0.00193 0.00120 0.00363 0.00121
269.97477 0.00038 -0.00013 -0.00038 0.00318 -0.00140
269.98454 -0.00089 -0.00063 -0.00139 -0.00064 -0.00291
269.99430 0.00215 0.00013 0.00038 0.00013 0.00088
270.00411 0.00163 0.00062 0.00387 0.00464 0.00012
270.01388 0.00398 0.00222 0.00050 -0.00025 0.00323
270.02364 -0.00263 -0.00287 0.00037 -0.00013 0.00088
270.03342 0.00101 0.00150 0.00075 0.00126 -0.00151
270.04318 0.00213 0.00562 0.00287 0.00188 0.00013
270.05295 0.00013 -0.00187 0.00062 0.00188 -0.00138
270.06272 0.00151 -0.00100 0.00201 0.00202 -0.00126
270.07249 0.00152 -0.00025 -0.00051 0.00203 -0.00025
270.08226 -0.00114 0.00013 0.00215 0.00216 0.00494
270.09203 0.00025 0.00201 0.00151 0.00304 0.00403
270.10180 0.00075 -0.00376 0.00050 0.00000 0.00000
270.11156 0.00442 0.00314 0.00315 0.00165 0.00240
270.12137 0.00303 -0.00151 -0.00025 0.00431 0.00379
270.13113 -0.00201 0.00225 0.00200 0.00202 0.00326
270.14090 0.00302 -0.00150 0.00200 0.00126 0.00226
270.15068 0.00455 0.00076 0.00126 0.00253 0.00454
270.16044 0.00127 0.00127 -0.00051 0.00383 0.00102
270.17021 -0.00191 0.00114 0.00089 0.00242 0.00266
270.17998 -0.00089 0.00215 -0.00038 0.00165 0.00013
270.18975 0.00178 0.00532 0.00380 0.00280 0.00153
270.19951 -0.00077 -0.00204 -0.00332 0.00000 -0.00435
270.20929 0.00141 0.00167 0.00244 0.00219 0.00450
270.21906 0.00375 0.00013 0.00194 0.00350 0.00298
270.22882 0.00351 -0.00039 -0.00194 0.00352 0.00169
270.23860 0.00338 0.00052 0.00285 0.00260 0.00208
270.24836 0.00181 0.00103 0.00000 0.00311 0.00129
270.25814 0.00166 0.00064 -0.00140 0.00115 -0.00038
270.26790 0.00318 0.00140 -0.00140 0.00141 0.00242
270.27767 0.00166 0.00064 -0.00038 -0.00243 0.00115
270.28744 -0.00090 -0.00013 0.00089 0.00244 0.00269
270.29721 0.00180 0.00154 0.00026 0.00052 0.00438
270.30698 0.00258 0.00103 0.00206 0.00104 0.00232
270.31675 0.00064 0.00038 -0.00141 0.00400 -0.00064
270.32652 0.00282 0.00077 0.00077 0.00129 0.00077
270.33628 0.00343 -0.00013 0.00139 0.00064 0.00393
270.34606 0.00076 0.00000 0.00126 0.00152 0.00000
270.35582 0.00000 -0.00202 -0.00227 -0.00178 -0.00051
270.36559 -0.00076 0.00076 0.00051 0.00153 0.00127
270.37533 -0.00076 0.00051 -0.00101 0.00076 -0.00127
270.38510 0.00215 0.00113 -0.00240 0.00038 0.00291
270.39487 0.00342 0.00265 0.00240 0.00165 -0.00063
270.40464 0.00215 0.00365 0.00164 0.00444 0.00493
270.41441 0.00164 -0.00139 0.00088 0.00190 -0.00266
270.42417 -0.00203 -0.00101 -0.00304 0.00076 -0.00051
270.43395 0.00115 0.00114 0.00165 -0.00141 0.00293
270.44371 -0.00089 -0.00292 0.00191 -0.00217 0.00191
270.45348 0.00076 -0.00101 -0.00101 0.00204 -0.00076
270.46326 -0.00025 -0.00227 -0.00430 -0.00178 -0.00254
270.47302 0.00051 0.00228 -0.00102 0.00306 -0.00203
270.48276 0.00140 0.00317 0.00013 0.00294 -0.00165
270.49253 0.00243 0.00140 0.00089 -0.00013 -0.00089
270.50230 0.00192 0.00115 -0.00038 0.00398 0.00243
270.51206 0.00487 0.00435 -0.00179 0.00566 0.00410
270.52184 0.00141 -0.00038 0.00140 -0.00218 -0.00192
270.53160 0.00000 -0.00229 -0.00178 0.00026 0.00051
270.54137 0.00076 0.00304 0.00228 0.00051 0.00127
270.55115 0.00254 0.00380 -0.00051 0.00688 0.00178
270.56088 0.00317 0.00164 0.00038 0.00292 0.00165
270.57065 0.00227 0.00050 0.00252 0.00355 -0.00253
270.58042 -0.00089 0.00038 -0.00266 -0.00140 -0.00013
270.59019 -0.00102 -0.00152 -0.00025 0.00102 -0.00204
270.59995 0.00038 -0.00267 -0.00267 0.00294 0.00140
270.60973 0.00089 -0.00165 0.00241 0.00166 0.00089
270.61946 -0.00204 -0.00127 0.00025 -0.00102 0.00128
270.62923 0.00000 0.00408 -0.00077 0.00103 0.00230
270.63900 0.00231 -0.00153 0.00255 -0.00077 -0.00051
270.64877 -0.00128 -0.00025 0.00458 0.00000 -0.00076
270.65854 0.00424 -0.00064 0.00346 0.00452 -0.00090
270.66828 -0.00052 0.00517 0.00233 0.00546 -0.00078
270.67805 0.00091 -0.00117 0.00117 0.00013 0.00013
270.68781 0.00182 0.00465 0.00387 0.00052 0.00233
270.69759 0.00169 0.00013 0.00142 0.00091 0.00091
270.70735 -0.00104 -0.00233 -0.00078 0.00000 -0.00156
270.71709 -0.00117 -0.00117 0.00117 -0.00091 -0.00039
270.72686 0.00105 0.00000 -0.00234 0.00235 -0.00078
270.73663 0.00275 -0.00143 0.00326 -0.00197 -0.00013
270.74640 0.00066 0.00170 0.00197 0.00118 0.00407
270.75614 -0.00092 -0.00013 0.00249 0.00145 0.00039
270.76591 0.00026 0.00209 0.00026 0.00131 0.00497
270.77567 0.00065 0.00117 0.00378 0.00118 0.00222
270.78545 0.00143 0.00428 0.00377 0.00065 0.00091
270.79518 0.00169 0.00376 0.00403 0.00404 0.00377
270.80495 0.00208 0.00026 0.00156 0.00104 0.00260
270.81472 0.00144 0.00169 0.00196 0.00380 0.00327
270.82449 0.00158 0.00289 0.00079 0.00000 -0.00368
270.83422 0.00316 0.00157 0.00000 0.00264 0.00210
270.84400 0.00039 0.00170 0.00380 0.00514 0.00013
270.85377 0.00066 0.00091 0.00013 0.00171 0.00118
270.86350 0.00052 0.00261 -0.00078 0.00000 0.00052
270.87328 0.00327 0.00143 0.00196 0.00432 0.00404
270.88304 0.00262 0.00104 0.00261 0.00052 0.00366
270.89281 0.00184 -0.00131 0.00026 0.00395 0.00026
270.90255 -0.00066 -0.00066 -0.00039 -0.00383 -0.00066
270.91232 0.00197 0.00249 0.00537 0.00197 0.00250
270.92208 0.00222 0.00091 0.00377 0.00275 -0.00039
270.93183 0.00052 0.00598 0.00234 0.00261 0.00260
270.94160 0.00156 0.00052 -0.00208 0.00000 -0.00130
270.95136 -0.00208 -0.00052 0.00234 0.00261 -0.00208
270.96111 0.00157 0.00416 0.00156 -0.00078 0.00026
270.97087 -0.00026 0.00182 0.00078 0.00236 -0.00235
270.98064 0.00144 -0.00221 -0.00169 0.00065 -0.00222
270.99038 0.00156 0.00026 -0.00052 0.00026 0.00208
271.00015 0.00207 0.00155 0.00103 0.00233 0.00389
271.00991 0.00349 0.00219 0.00270 0.00220 0.00245
271.01966 0.00194 0.00452 0.00220 0.00376 0.00091
271.02942 0.00155 -0.00103 0.00233 0.00026 0.00000
271.03916 0.00051 0.00051 0.00128 0.00257 0.00026
271.04893 0.00089 0.00114 0.00343 0.00243 -0.00089
271.05870 0.00217 0.00216 0.00115 0.00473 0.00115
271.06844 0.00167 0.00472 0.00370 0.00193 0.00422
271.07821 0.00347 0.00473 0.00704 -0.00090 0.00295
271.08795 0.00399 0.00013 0.00372 0.00297 -0.00064
271.09771 0.00142 0.00064 0.00193 0.00246 -0.00013
271.10749 0.00413 0.00257 0.00103 0.00336 0.00309
271.11722 0.00309 -0.00205 0.00257 -0.00077 0.00206
271.12699 0.00064 0.00166 0.00372 0.00193 0.00090
271.13673 0.00103 0.00359 -0.00051 0.00233 0.00257
271.14650 0.00388 0.00078 0.00490 0.00518 0.00465
271.15624 0.00013 0.00142 0.00090 -0.00065 0.00220
271.16601 0.00286 0.00078 0.00337 0.00000 0.00469
271.17578 0.00364 0.00389 0.00311 0.00574 0.00520
271.18552 0.00117 -0.00039 -0.00013 0.00065 -0.00142
271.19529 -0.00233 -0.00052 -0.00077 -0.00285 0.00078
271.20502 0.00195 0.00091 0.00039 -0.00325 -0.00117
271.21480 0.00182 0.00052 0.00312 0.00183 0.00598
271.22453 0.00220 0.00090 0.00091 -0.00143 0.00065
271.23430 0.00453 0.00245 0.00348 0.00247 0.00324
271.24404 -0.00077 0.00283 0.00128 0.00207 -0.00052
271.25381 0.00000 0.00256 0.00051 0.00464 0.00334
271.26354 0.00026 0.00281 0.00077 0.00386 0.00180
271.27332 0.00141 -0.00038 0.00090 0.00168 0.00039
271.28305 0.00258 0.00077 0.00154 0.00389 0.00207
271.29282 -0.00364 -0.00284 -0.00026 0.00156 -0.00026
271.30256 0.00091 -0.00090 0.00194 -0.00065 -0.00195
271.31233 0.00414 0.00465 0.00232 0.00312 0.00544
271.32207 0.00221 0.00065 0.00479 0.00221 0.00325
271.33184 -0.00130 0.00000 -0.00130 -0.00157 -0.00364
271.34158 0.00337 -0.00207 0.00000 -0.00182 -0.00130
271.35134 0.00220 -0.00321 0.00476 -0.00013 0.00090
271.36109 0.00013 0.00269 -0.00039 0.00039 -0.00013
271.37085 0.00386 -0.00180 0.00282 0.00361 0.00257
271.38059 0.00154 0.00205 0.00154 0.00129 0.00360
271.39036 0.00464 0.00565 0.00308 0.00801 0.00309
271.40010 0.00129 0.00232 0.00129 0.00492 -0.00129
271.40986 0.00000 0.00130 0.00234 -0.00078 0.00000
271.41961 0.00288 0.00208 0.00470 0.00315 0.00209
271.42934 0.00131 0.00130 -0.00182 0.00262 0.00314
271.43911 -0.00078 -0.00208 0.00261 0.00079 0.00235
271.44886 0.00221 0.00194 0.00221 0.00065 -0.00117
271.45862 0.00181 0.00155 0.00258 0.00363 0.00207
271.46836 0.00142 0.00425 0.00193 0.00117 0.00039
271.47813 -0.00142 -0.00039 0.00039 -0.00039 -0.00116
271.48787 0.00000 0.00259 0.00130 0.00000 0.00052
271.49760 0.00156 0.00674 0.00338 0.00104 0.00182
271.50738 0.00104 0.00208 0.00208 0.00026 -0.00026
271.51711 -0.00026 0.00078 0.00104 -0.00131 -0.00208
271.52688 0.00350 0.00168 0.00401 0.00351 0.00349
271.53662 0.00424 -0.00013 0.00218 -0.00013 -0.00167
271.54636 0.00217 0.00115 0.00242 0.00397 0.00294
271.55612 0.00153 0.00559 0.00306 0.00461 0.00485
271.56587 0.00179 0.00000 -0.00026 -0.00026 -0.00051
271.57560 0.00510 0.00280 0.00458 0.00435 0.00357
271.58537 -0.00013 -0.00038 -0.00038 -0.00115 -0.00140
271.59511 -0.00038 0.00191 0.00166 0.00038 -0.00013
271.60485 0.00026 -0.00279 0.00076 -0.00026 0.00128
271.61462 0.00178 0.00000 0.00228 0.00205 0.00127
271.62436 0.00191 0.00013 0.00267 0.00217 0.00089
271.63410 0.00333 0.00077 -0.00051 0.00128 0.00051
271.64386 0.00090 -0.00192 0.00064 0.00013 0.00295
271.65361 -0.00116 -0.00064 -0.00089 0.00142 -0.00167
271.66334 0.00295 -0.00064 0.00268 -0.00013 0.00038
271.67311 0.00269 0.00115 0.00346 0.00424 0.00218
271.68285 0.00000 0.00230 0.00332 0.00077 0.00513
271.69259 0.00191 0.00266 0.00317 0.00344 0.00419
271.70235 0.00038 0.00113 0.00138 0.00240 0.00340
271.71210 0.00239 0.00113 0.00288 0.00113 0.00163
271.72183 0.00025 0.00101 0.00202 0.00279 0.00000
271.73160 0.00292 0.00038 0.00139 0.00165 0.00038
271.74134 0.00242 0.00266 0.00013 0.00318 0.00394
271.75108 0.00051 -0.00126 0.00126 0.00279 0.00279
271.76081 0.00253 0.00126 -0.00050 0.00076 -0.00455
271.77059 0.00076 0.00226 -0.00075 -0.00152 -0.00201
271.78033 0.00575 0.00025 0.00025 0.00251 -0.00050
271.79006 -0.00037 0.00312 0.00112 -0.00063 0.00487
271.79981 0.00126 0.00250 0.00050 0.00428 0.00502
271.80957 0.00000 0.00050 -0.00101 0.00127 -0.00202
271.81931 0.00000 0.00176 0.00151 0.00228 0.00202
271.82905 0.00240 0.00189 0.00139 0.00291 0.00189
271.83879 0.00227 0.00000 0.00277 0.00101 0.00025
271.84855 0.00138 0.00187 -0.00112 0.00214 0.00188
271.85830 0.00188 -0.00037 0.00012 0.00440 -0.00138
271.86803 0.00076 0.00100 0.00126 0.00076 0.00025
271.87778 0.00063 0.00566 -0.00038 0.00240 -0.00013
271.88754 0.00214 0.00088 0.00038 0.00367 0.00088
271.89728 -0.00164 0.00013 0.00038 0.00063 0.00013
271.90702 0.00368 0.00265 0.00013 -0.00317 -0.00215
271.91676 0.00240 0.00113 -0.00113 0.00164 0.00038
271.92649 -0.00101 0.00126 0.00277 -0.00025 0.00227
271.93627 0.00441 0.00414 0.00214 0.00645 0.00063
271.94600 0.00354 0.00403 0.00177 0.00203 0.00202
271.95574 0.00114 0.00139 -0.00013 -0.00166 -0.00063
271.96548 0.00178 -0.00076 -0.00253 0.00203 0.00076
271.97522 0.00229 0.00101 0.00608 0.00510 0.00280
271.98495 0.00520 0.00063 0.00089 0.00064 -0.00063
271.99473 -0.00013 -0.00215 -0.00114 -0.00165 0.00013
272.00447 0.00151 0.00075 0.00201 0.00201 0.00377
272.01420 0.00163 0.00037 0.00361 0.00213 0.00338
272.02395 0.00325 -0.00025 0.00075 0.00351 0.00200
272.03368 0.00125 0.00150 0.00200 0.00351 -0.00025
272.04342 -0.00088 0.00362 -0.00063 -0.00063 -0.00013
272.05316 -0.00076 0.00000 0.00050 0.00076 0.00227
272.06293 0.00051 0.00025 -0.00152 0.00076 -0.00025
272.07266 0.00383 0.00254 0.00280 0.00384 0.00460
272.08241 0.00205 0.00280 0.00051 0.00026 -0.00153
272.09214 0.00000 0.00255 0.00026 -0.00077 0.00230
272.10188 0.00375 0.00399 0.00425 0.00583 0.00245
272.11162 0.00129 0.00335 0.00283 0.00286 0.00362
272.12136 0.00206 0.00103 0.00360 0.00490 0.00258
272.13109 0.00385 0.00281 0.00384 0.00077 0.00077
272.14084 0.00282 0.00307 0.00102 0.00129 0.00180
272.15057 -0.00129 -0.00359 0.00000 0.00129 -0.00077
272.16034 0.00206 0.00231 0.00026 0.00517 0.00335
272.17008 -0.00039 0.00244 0.00244 0.00039 0.00193
272.17982 -0.00272 -0.00348 -0.00013 -0.00091 -0.00090
272.18955 -0.00129 0.00179 0.00026 0.00310 0.00052
272.19930 0.00140 0.00114 0.00292 0.00294 0.00089
272.20903 0.00266 0.00315 0.00341 0.00190 0.00215
272.21877 0.00380 -0.00176 0.00227 0.00025 -0.00101
272.22851 0.00494 0.00038 -0.00038 0.00191 0.00165
272.23825 0.00076 -0.00076 0.00176 0.00279 -0.00050
272.24798 0.00076 0.00226 0.00050 0.00025 0.00252
272.25773 0.00025 0.00226 0.00302 0.00278 -0.00201
272.26746 0.00404 0.00327 0.00126 0.00127 0.00101
272.27720 0.00038 0.00265 -0.00240 -0.00114 0.00190
272.28694 0.00366 0.00189 -0.00063 0.00139 0.00088
272.29668 0.00266 -0.00113 0.00189 0.00038 0.00265
272.30641 0.00215 0.00594 0.00063 0.00445 0.00139
272.31616 0.00076 -0.00051 -0.00152 0.00230 0.00254
272.32589 0.00089 0.00216 0.00318 0.00064 0.00344
272.33563 0.00293 -0.00089 0.00165 0.00064 0.00064
272.34537 0.00178 0.00101 -0.00051 0.00357 -0.00102
272.35511 0.00215 0.00138 -0.00164 0.00316 0.00063
272.36485 0.00188 0.00163 -0.00088 0.00491 0.00013
272.37459 0.00201 0.00000 -0.00100 0.00000 0.00226
272.38433 -0.00013 0.00313 0.00388 0.00340 0.00088
272.39406 0.00126 0.00428 0.00327 0.00228 0.00076
272.40381 0.00088 0.00213 0.00289 0.00316 0.00038
272.41354 0.00025 -0.00175 -0.00200 0.00151 -0.00401
272.42328 0.00150 0.00300 0.00150 0.00301 0.00576
272.43302 0.00187 0.00112 0.00112 0.00288 0.00362
272.44276 0.00050 -0.00321 -0.00050 0.00000 0.00397
272.45249 -0.00012 0.00160 -0.00185 0.00087 0.00309
272.46224 0.00187 0.00260 -0.00012 0.00012 0.00360
272.47197 0.00387 0.00161 0.00261 0.00262 0.00237
272.48168 0.00324 0.00174 0.00199 0.00125 0.00075
272.49142 0.00063 0.00262 0.00062 -0.00163 -0.00012
272.50116 0.00237 -0.00037 0.00211 0.00212 0.00187
272.51090 0.00050 0.00025 -0.00149 0.00075 0.00124
272.52064 0.00373 0.00396 0.00099 0.00350 0.00199
272.53037 0.00188 -0.00137 0.00062 0.00313 0.00112
272.54012 -0.00038 0.00312 0.00487 0.00415 0.00163
272.54985 0.00038 -0.00187 -0.00237 0.00038 -0.00112
272.55959 0.00238 0.00012 0.00361 0.00038 0.00112
272.56933 0.00175 0.00000 0.00100 0.00300 0.00075
272.57904 -0.00063 0.00138 -0.00038 -0.00013 -0.00214
272.58877 -0.00164 -0.00139 0.00189 0.00013 0.00291
272.59852 -0.00038 0.00164 -0.00113 -0.00089 -0.00063
272.60825 0.00227 0.00277 0.00277 0.00000 -0.00051
272.61799 0.00025 0.00126 0.00025 0.00152 -0.00101
272.62773 0.00215 0.00013 0.00013 -0.00164 0.00366
272.63747 0.00555 0.00176 0.00327 0.00304 0.00227
272.64717 0.00126 0.00000 0.00075 0.00101 0.00251
272.65692 0.00262 -0.00112 -0.00062 0.00013 0.00013
272.66665 0.00075 0.00074 -0.00074 -0.00025 -0.00025
272.67639 0.00112 0.00086 0.00260 0.00361 -0.00037
272.68613 0.00000 0.00198 0.00347 -0.00025 0.00348
272.69587 0.00162 -0.00012 0.00435 0.00163 0.00037
272.70557 0.00263 -0.00037 0.00287 0.00665 0.00188
272.71532 -0.00100 0.00199 0.00200 -0.00025 0.00150
272.72505 -0.00038 -0.00137 0.00012 0.00113 -0.00112
272.73479 -0.00302 -0.00075 0.00000 0.00101 -0.00025
272.74453 -0.00025 -0.00050 0.00151 -0.00025 0.00402
272.75424 0.00050 0.00125 0.00201 0.00227 -0.00075
272.76397 0.00152 0.00025 -0.00126 0.00203 0.00202
272.77372 -0.00342 0.00139 0.00341 0.00140 -0.00089
272.78345 0.00490 0.00038 0.00113 0.00214 0.00063
272.79316 0.00314 0.00188 0.00088 0.00440 0.00063
272.80290 0.00101 0.00300 0.00150 0.00353 0.00226
272.81264 0.00190 0.00240 0.00088 0.00267 0.00190
272.82237 0.00140 0.00594 0.00292 0.00115 0.00317
272.83209 0.00102 0.00177 0.00153 0.00153 -0.00153
272.84182 0.00255 0.00203 0.00660 0.00384 0.00153
272.85156 0.00038 0.00038 0.00241 0.00293 0.00191
272.86130 -0.00102 0.00380 0.00076 0.00153 0.00076
272.87101 0.00407 -0.00051 0.00051 0.00153 0.00280
272.88074 0.00255 0.00280 0.00178 0.00230 0.00051
272.89049 0.00282 0.00153 0.00230 0.00308 0.00153
272.90022 -0.00064 0.00013 0.00064 0.00167 0.00038
272.90993 0.00127 0.00000 0.00203 0.00102 -0.00051
272.91967 0.00343 0.00189 0.00013 0.00191 0.00444
272.92941 0.00190 0.00417 0.00341 0.00267 0.00266
272.93911 0.00266 0.00239 0.00214 0.00114 0.00391
272.94886 0.00684 0.00252 0.00227 0.00457 0.00101
272.95859 0.00393 0.00315 0.00543 -0.00013 0.00493
272.96830 0.00063 0.00113 0.00391 0.00038 -0.00038
272.97804 0.00050 0.00025 0.00000 0.00000 -0.00076
272.98778 -0.00101 0.00301 0.00025 0.00050 -0.00025
272.99748 0.00113 0.00013 0.00213 0.00038 0.00214
273.00723 0.00051 0.00252 0.00076 0.00203 0.00101
273.01696 0.00101 0.00251 -0.00126 0.00076 -0.00076
273.02667 0.00340 0.00038 0.00113 0.00139 -0.00265
273.03641 0.00163 0.00212 0.00163 0.00113 0.00289
273.04615 0.00151 0.00050 0.00501 0.00176 -0.00075
273.05586 0.00351 0.00325 0.00150 0.00277 0.00226
273.06560 0.00138 -0.00012 0.00013 -0.00063 0.00313
273.07533 0.00288 0.00287 0.00388 0.00339 0.00213
273.08505 0.00276 -0.00050 0.00025 -0.00025 0.00050
273.09478 0.00338 0.00337 0.00537 0.00163 0.00213
273.10452 0.00275 0.00075 0.00150 0.00301 0.00250
273.11423 0.00338 -0.00037 0.00687 0.00113 0.00463
273.12397 0.00126 0.00050 0.00000 -0.00101 0.00125
273.13367 0.00088 -0.00163 -0.00063 0.00063 0.00240
273.14341 0.00203 0.00403 0.00202 0.00228 0.00177
273.15312 0.00292 0.00366 0.00468 0.00394 0.00444
273.16285 0.00265 0.00164 0.00240 0.00267 -0.00013
273.17260 0.00265 0.00038 0.00315 0.00114 0.00239
273.18230 0.00202 0.00580 0.00025 0.00177 -0.00025
273.19204 0.00520 0.00341 0.00493 0.00190 0.00393
273.20175 0.00329 0.00353 0.00076 0.00127 0.00076
273.21149 0.00392 0.00214 0.00139 0.00215 -0.00114
273.22119 0.00114 0.00214 -0.00013 0.00089 -0.00114
273.23094 0.00406 0.00253 0.00304 0.00102 0.00025
273.24067 0.00139 0.00239 0.00063 0.00647 -0.00190
273.25038 0.00251 -0.00075 -0.00201 0.00000 0.00025
273.26012 0.00188 -0.00012 0.00063 0.00113 0.00138
273.26983 -0.00125 0.00100 0.00100 -0.00176 0.00000
273.27956 0.00488 0.00313 0.00087 0.00466 -0.00038
273.28928 0.00188 0.00062 0.00338 0.00188 0.00313
273.29901 -0.00037 -0.00037 0.00211 0.00313 0.00287
273.30872 0.00038 -0.00062 0.00112 -0.00063 -0.00038
273.31846 0.00341 -0.00088 0.00314 0.00089 -0.00013
273.32817 0.00126 0.00151 0.00100 0.00353 -0.00101
273.33790 0.00428 0.00125 -0.00025 0.00101 0.00151
273.34762 0.00088 0.00088 0.00214 0.00164 -0.00113
273.35735 0.00253 0.00025 0.00152 0.00152 0.00000
273.36706 0.00051 0.00025 0.00202 0.00102 0.00025
273.37680 0.00381 0.00455 0.00405 0.00280 0.00406
273.38651 0.00089 0.00089 -0.00089 0.00191 0.00267
273.39624 -0.00026 0.00229 0.00255 0.00026 0.00205
273.40596 0.00244 0.00089 0.00218 0.00424 0.00090
273.41569 0.00474 0.00038 0.00472 0.00192 0.00166
273.42540 0.00153 -0.00076 -0.00076 0.00026 -0.00025
273.43514 0.00230 0.00280 -0.00076 0.00281 0.00128
273.44485 0.00038 -0.00013 0.00267 0.00447 0.00089
273.45455 0.00140 0.00190 -0.00038 0.00243 -0.00242
273.46430 0.00435 0.00433 0.00204 0.00514 0.00307
273.47400 0.00128 0.00332 0.00434 0.00411 0.00513
273.48373 0.00103 0.00026 0.00230 0.00386 -0.00154
273.49345 0.00013 0.00268 -0.00192 0.00218 -0.00218
273.50318 0.00218 0.00242 -0.00038 0.00218 0.00090
273.51289 0.00051 0.00434 0.00229 0.00180 0.00307
273.52260 0.00255 0.00077 0.00076 0.00256 -0.00077
273.53234 0.00115 0.00140 0.00166 0.00013 0.00447
273.54204 0.00205 0.00153 0.00281 0.00077 0.00128
273.55179 0.00281 0.00229 0.00051 0.00051 -0.00026
273.56149 -0.00025 0.00076 0.00254 0.00307 -0.00025
273.57121 0.00420 0.00063 -0.00139 -0.00089 -0.00267
273.58094 0.00051 -0.00101 0.00025 0.00255 0.00178
273.59065 0.00356 0.00051 0.00431 0.00306 0.00204
273.60036 0.00293 0.00748 0.00521 0.00064 0.00268
273.61010 -0.00179 0.00000 0.00152 0.00102 0.00076
273.61980 -0.00038 0.00089 -0.00064 0.00116 0.00192
273.62952 0.00270 0.00447 -0.00013 0.00039 0.00192
273.63925 0.00321 0.00166 -0.00013 0.00219 0.00218
273.64896 0.00448 0.00294 0.00600 0.00424 0.00217
273.65870 0.00549 0.00344 0.00140 0.00371 0.00217
273.66841 0.00038 0.00013 -0.00013 0.00038 0.00013
273.67811 0.00281 0.00254 0.00357 0.00077 -0.00128
273.68782 0.00050 -0.00025 -0.00352 0.00051 -0.00177
273.69756 0.00188 0.00287 0.00012 0.00440 0.00163
273.70726 0.00252 -0.00050 0.00151 0.00278 -0.00076
273.71698 0.00518 -0.00013 0.00088 0.00443 0.00139
273.72671 0.00304 0.00025 0.00202 0.00228 0.00177
273.73642 0.00165 0.00114 0.00417 0.00343 0.00038
273.74613 0.00267 0.00190 0.00191 0.00294 0.00522
273.75587 0.00000 -0.00076 0.00203 0.00357 0.00127
273.76557 0.00354 0.00227 0.00227 0.00381 0.00228
273.77529 0.00505 0.00277 0.00151 0.00304 0.00580
273.78499 0.00304 0.00050 0.00177 0.00000 0.00152
273.79473 0.00293 0.00089 0.00318 0.00013 0.00470
273.80444 0.00344 0.00471 0.00421 0.00345 0.00370
273.81415 0.00229 0.00407 0.00102 0.00358 0.00127
273.82388 0.00318 0.00063 -0.00038 0.00038 0.00241
273.83360 0.00089 0.00265 0.00164 0.00165 -0.00063
273.84330 0.00126 0.00126 0.00050 -0.00152 -0.00050
273.85301 0.00101 -0.00025 0.00177 0.00102 0.00202
273.86272 0.00292 0.00139 0.00063 0.00089 0.00216
273.87246 0.00038 0.00139 0.00164 0.00190 -0.00013
273.88216 -0.00025 -0.00126 0.00075 0.00127 0.00000
273.89187 -0.00025 0.00000 -0.00478 -0.00405 -0.00101
273.90158 0.00365 0.00339 0.00164 0.00139 0.00366
273.91131 0.00227 0.00176 0.00151 0.00202 0.00025
273.92103 0.00341 0.00239 0.00416 0.00418 0.00543
273.93073 0.00355 0.00253 0.00431 0.00153 0.00482
273.94044 -0.00038 0.00089 0.00114 -0.00089 0.00165
273.95015 0.00432 0.00558 0.00381 0.00383 0.00229
273.95989 0.00063 -0.00114 0.00215 0.00395 0.00190
273.96959 0.00279 -0.00101 -0.00101 -0.00280 0.00127
273.97931 0.00444 0.00468 -0.00063 0.00013 -0.00013
273.98901 0.00000 0.00101 0.00227 0.00406 0.00531
273.99872 0.00504 0.00452 0.00276 0.00581 0.00453
274.00843 0.00402 -0.00125 0.00075 0.00403 0.00376
274.01817 0.00201 0.00150 0.00200 0.00050 0.00025
274.02788 0.00364 0.00163 0.00013 0.00365 0.00289
274.03758 0.00252 -0.00176 0.00251 0.00202 -0.00050
274.04729 0.00393 0.00240 0.00291 0.00292 0.00570
274.05700 0.00025 0.00101 -0.00178 -0.00204 -0.00025
274.06671 0.00076 0.00152 0.00152 0.00357 -0.00051
274.07641 0.00076 0.00000 0.00101 0.00051 -0.00127
274.08616 0.00293 0.00215 0.00444 0.00293 0.00191
274.09586 0.00280 0.00076 0.00101 0.00127 0.00203
274.10557 0.00317 0.00642 0.00240 0.00013 0.00594
274.11528 0.00656 0.00579 0.00353 0.00533 0.00555
274.12499 0.00165 0.00366 0.00190 0.00038 0.00342
274.13469 0.00573 0.00418 0.00495 0.00166 0.00089
274.14441 0.00356 0.00202 0.00279 -0.00025 0.00076
274.15411 0.00216 0.00240 0.00317 0.00038 -0.00216
274.16381 0.00660 0.00227 0.00177 0.00458 0.00508
274.17353 0.00088 0.00188 0.00088 -0.00189 0.00163
274.18326 0.00087 -0.00037 0.00037 0.00237 -0.00012
274.19297 -0.00149 0.00123 -0.00049 0.00075 0.00248
274.20268 -0.00050 0.00074 0.00148 0.00025 0.00223
274.21239 -0.00100 0.00173 0.00050 0.00225 0.00348
274.22209 -0.00012 0.00037 0.00087 -0.00037 -0.00062
274.23181 0.00335 0.00161 0.00037 -0.00037 0.00361
274.24151 0.00411 0.00161 0.00012 0.00062 0.00386
274.25122 -0.00112 -0.00062 0.00037 0.00062 -0.00037
274.26093 0.00371 0.00419 0.00395 0.00223 0.00074
274.27064 0.00383 0.00283 0.00357 0.00260 0.00160
274.28034 0.00136 0.00210 0.00383 0.00286 0.00210
274.29006 0.00149 0.00050 0.00149 -0.00075 0.00000
274.29976 0.00087 0.00211 0.00361 0.00514 0.00087
274.30946 0.00125 0.00100 0.00050 0.00050 -0.00349
274.31918 0.00200 0.00174 0.00100 0.00250 -0.00075
274.32888 0.00324 0.00323 0.00373 0.00175 0.00425
274.33859 0.00211 0.00457 0.00407 0.00311 0.00185
274.34830 -0.00012 0.00232 0.00110 0.00185 0.00086
274.35801 -0.00110 0.00085 -0.00085 0.00037 0.00110
274.36771 0.00539 -0.00024 0.00098 0.00000 0.00147
274.37743 0.00295 0.00073 0.00221 0.00148 0.00074
274.38713 -0.00209 0.00453 -0.00012 0.00012 -0.00185
274.39684 0.00246 0.00024 0.00196 0.00148 -0.00049
274.40655 0.00490 0.00220 0.00049 0.00123 0.00294
274.41625 0.00232 0.00207 0.00207 0.00428 0.00208
274.42596 0.00109 -0.00109 0.00036 -0.00037 0.00109
274.43567 0.00109 0.00326 0.00447 0.00401 0.00206
274.44538 0.00511 0.00315 0.00413 0.00293 0.00219
274.45508 -0.00049 -0.00219 0.00049 0.00415 0.00073
274.46480 0.00183 0.00500 -0.00085 0.00159 0.00012
274.47447 0.00379 0.00183 0.00207 0.00455 0.00354
274.48419 0.00329 0.00061 0.00158 0.00184 -0.00232
274.49389 0.00158 0.00061 0.00157 0.00280 -0.00036
274.50360 -0.00036 0.00109 -0.00036 -0.00159 0.00255
274.51331 0.00257 0.00231 0.00280 0.00159 0.00452
274.52301 0.00245 -0.00024 0.00049 0.00320 0.00269
274.53272 0.00098 -0.00146 0.00294 0.00590 0.00171
274.54243 0.00037 0.00476 0.00134 0.00184 0.00306
274.55214 -0.00122 -0.00195 0.00000 0.00246 0.00098
274.56184 0.00221 0.00294 0.00172 0.00517 0.00344
274.57153 0.00320 0.00418 0.00246 0.00099 0.00074
274.58123 -0.00025 0.00246 0.00025 0.00198 -0.00025
274.59094 0.00248 0.00148 0.00272 0.00273 0.00272
274.60065 0.00236 0.00679 0.00285 0.00510 0.00186
274.61036 0.00595 0.00544 0.00569 0.00423 0.00422
274.62006 0.00496 0.00124 0.00247 0.00323 0.00421
274.62977 0.00074 0.00221 0.00172 0.00371 0.00148
274.63945 0.00110 -0.00037 0.00184 -0.00037 -0.00037
274.64915 0.00280 0.00473 0.00523 0.00208 0.00353
274.65887 0.00170 0.00097 0.00146 0.00195 0.00293
274.66857 0.00526 0.00353 0.00232 0.00820 0.00354
274.67828 0.00281 0.00207 0.00304 0.00184 0.00329
274.68799 0.00183 0.00037 0.00134 -0.00012 0.00085
274.69767 0.00258 0.00281 0.00159 0.00283 0.00184
274.70737 0.00272 0.00049 -0.00074 0.00050 0.00000
274.71709 0.00124 0.00124 0.00000 0.00324 0.00273
274.72679 0.00410 0.00211 0.00335 0.00337 -0.00186
274.73649 0.00397 0.00298 0.00273 0.00523 0.00074
274.74618 0.00339 0.00113 0.00262 -0.00013 0.00288
274.75588 0.00227 0.00351 0.00100 0.00354 0.00226
274.76559 0.00438 0.00087 0.00287 0.00590 0.00138
274.77530 -0.00050 -0.00149 0.00174 -0.00075 0.00025
274.78498 0.00523 0.00819 0.00000 0.00574 0.00648
274.79468 0.00249 0.00074 -0.00025 0.00150 0.00174
274.80440 0.00100 0.00273 0.00298 0.00250 0.00174
274.81410 0.00462 0.00335 0.00286 0.00188 0.00337
274.82380 0.00100 0.00249 0.00398 -0.00075 0.00224
274.83349 0.00411 -0.00062 0.00161 0.00362 0.00112
274.84319 0.00136 0.00111 0.00185 0.00260 -0.00012
274.85290 -0.00098 0.00073 -0.00049 0.00172 0.00491
274.86258 0.00098 0.00317 0.00171 0.00392 0.00561
274.87229 0.00344 0.00440 0.00612 0.00197 0.00540
274.88200 0.00601 0.00232 0.00110 0.00800 0.00282
274.89171 0.00440 0.00268 0.00390 0.00515 0.00489
274.90138 0.00159 0.00061 0.00281 0.00381 0.00110
274.91109 0.00357 0.00503 0.00160 0.00284 0.00406
274.92080 0.00530 0.00381 0.00479 0.00185 0.00431
274.93047 -0.00086 0.00355 0.00184 0.00136 0.00357
274.94019 0.00431 -0.00012 0.00012 0.00481 0.00136
274.94989 0.00283 0.00159 0.00086 0.00358 0.00209
274.95957 0.00433 0.00357 0.00037 0.00211 0.00210
274.96928 0.00484 0.00235 0.00285 0.00411 0.00360
274.97899 0.00349 -0.00149 0.00274 -0.00075 0.00199
274.98866 0.00411 0.00211 0.00335 0.00461 0.00012
274.99837 0.00393 0.00343 0.00441 0.00444 0.00444
275.00808 0.00391 0.00292 0.00219 0.00220 0.00293
275.01775 0.00134 0.00449 0.00158 0.00501 0.00256
275.02747 0.00476 0.00352 0.00498 0.00257 0.00329
275.03717 0.00123 0.00391 0.00171 0.00221 0.00049
275.04685 0.00443 0.00098 0.00246 0.00247 0.00172
275.05656 0.00393 0.00000 0.00466 0.00197 0.00147
275.06627 0.00195 0.00219 0.00219 0.00196 0.00415
275.07594 0.00230 0.00060 0.00060 0.00134 0.00133
275.08565 0.00505 0.00263 0.00431 0.00506 0.00288
275.09533 0.00072 0.00239 0.00144 0.00217 0.00336
275.10503 -0.00036 0.00084 0.00253 0.00496 0.00398
275.11475 0.00446 0.00108 0.00420 0.00133 0.00084
275.12442 0.00314 0.00241 0.00410 0.00436 0.00459
275.13413 0.00423 0.00132 0.00326 0.00376 0.00278
275.14381 0.00290 0.00144 0.00120 0.00218 -0.00072
275.15351 0.00265 0.00432 0.00576 0.00217 0.00337
275.16322 0.00422 0.00421 0.00276 0.00254 0.00229
275.17290 0.00435 0.00458 0.00482 0.00800 0.00314
275.18261 0.00426 0.00424 0.00376 0.00695 0.00231
275.19228 0.00291 0.00170 0.00291 0.00269 0.00317
275.20200 0.00244 0.00534 0.00340 0.00537 0.00292
275.21167 0.00427 0.00085 0.00280 0.00208 0.00061
275.22137 0.00160 0.00135 0.00012 0.00037 0.00209
275.23106 0.00123 0.00197 0.00246 0.00000 0.00099
275.24076 0.00185 0.00062 0.00185 0.00012 0.00309
275.25047 0.00518 0.00148 0.00099 0.00223 0.00099
275.26015 0.00542 0.00343 0.00295 0.00222 0.00246
275.26986 0.00171 0.00366 0.00244 0.00418 0.00098
275.27954 0.00537 0.00487 0.00853 0.00613 0.00563
275.28925 0.00122 0.00268 0.00171 0.00270 0.00244
275.29892 0.00329 0.00328 0.00329 0.00428 0.00500
275.30863 0.00425 0.00496 0.00012 0.00280 0.00206
275.31831 0.00327 0.00254 0.00374 0.00230 0.00230
275.32801 0.00608 0.00364 0.00412 0.00586 0.00438
275.33770 0.00195 0.00145 0.00340 0.00293 0.00073
275.34740 0.00073 0.00242 -0.00024 0.00342 0.00219
275.35708 0.00489 0.00439 0.00390 0.00319 0.00513
275.36679 0.00429 0.00403 0.00305 0.00307 0.00674
275.37646 0.00184 0.00330 0.00183 0.00430 0.00356
275.38614 0.00416 0.00513 0.00537 0.00369 0.00441
275.39585 0.00417 0.00465 0.00172 0.00197 0.00172
275.40553 0.00435 0.00260 0.00384 0.00287 0.00112
275.41523 0.00238 0.00012 0.00212 0.00314 0.00338
275.42492 0.00362 0.00336 0.00286 0.00263 0.00337
275.43462 0.00312 0.00186 0.00486 0.00338 0.00412
275.44429 0.00037 0.00386 0.00187 0.00138 0.00387
275.45401 0.00590 0.00463 0.00438 0.00390 0.00088
275.46368 -0.00113 0.00288 0.00038 0.00038 0.00138
275.47336 0.00566 0.00188 -0.00013 0.00315 0.00113
275.48307 0.00289 0.00188 0.00038 0.00415 0.00163
275.49275 0.00665 0.00288 0.00288 -0.00038 0.00188
275.50245 0.00649 0.00374 0.00125 0.00401 0.00424
275.51213 0.00435 0.00581 0.00285 0.00162 0.00435
275.52181 0.00496 0.00396 0.00593 0.00847 0.00793
275.53151 0.00659 0.00632 0.00558 0.00587 0.00361
275.54120 0.00398 0.00124 -0.00050 0.00050 0.00248
275.55087 0.00322 0.00321 0.00471 0.00448 0.00347
275.56058 0.00349 0.00547 0.00746 0.00651 0.00249
275.57026 0.00298 0.00273 0.00497 0.00424 0.00199
275.57996 0.00660 0.00236 0.00161 0.00288 0.00411
275.58964 0.00885 0.00485 0.00461 0.00338 0.00461
275.59932 0.00250 -0.00199 -0.00149 0.00125 -0.00224
275.60903 0.00875 0.00472 0.00573 0.00551 0.00324
275.61870 0.00300 0.00175 0.00375 0.00201 0.00350
275.62839 0.00551 0.00525 0.00225 0.00377 0.00376
275.63809 0.00301 0.00425 0.00425 0.00603 0.00551
275.64777 0.00125 0.00250 0.00325 0.00126 0.00526
275.65745 0.00558 0.00235 0.00433 0.00037 0.00087
275.66715 0.00407 0.00331 0.00454 0.00482 0.00307
275.67684 0.00479 0.00233 0.00184 0.00160 0.00209
275.68651 0.00620 0.00618 0.00099 0.00349 0.00347
275.69622 0.00437 0.00286 0.00411 0.00313 0.00387
275.70590 0.00225 0.00149 0.00075 0.00276 0.00200
275.71557 0.00463 0.00362 0.00487 0.00364 0.00313
275.72525 0.00400 0.00649 0.00349 0.00301 0.00651
275.73496 0.00488 0.00286 0.00611 0.00364 0.00337
275.74464 0.00311 0.00310 0.00360 0.00386 0.00385
275.75431 0.00459 0.00259 0.00136 0.00361 0.00408
275.76399 0.00610 0.00433 0.00732 0.00487 0.00584
275.77370 0.00436 0.00758 0.00385 0.00438 0.00312
275.78337 0.00699 0.00274 0.00199 0.00626 0.00275
275.79306 0.00525 0.00249 0.00597 0.00451 0.00424
275.80273 0.00387 0.00161 0.00385 0.00313 -0.00037
275.81244 0.00325 0.00374 0.00523 0.00502 0.00425
275.82212 0.00150 0.00150 0.00424 0.00100 0.00326
275.83179 0.00113 0.00337 0.00262 0.00013 0.00188
275.84147 0.00250 0.00524 0.00351 0.00201 -0.00100
275.85118 0.00388 0.00237 0.00486 0.00892 0.00462
275.86086 0.00474 0.00373 0.00596 0.00550 0.00300
275.87053 0.00225 0.00249 0.00199 0.00376 0.00175
275.88021 0.00511 0.00484 0.00535 0.00512 0.00187
275.88989 0.00823 0.00346 0.00596 0.00399 0.00323
275.89959 0.00087 0.00235 0.00260 0.00137 -0.00162
275.90928 0.00435 0.00161 0.00162 0.00562 0.00411
275.91895 -0.00025 0.00199 0.00348 0.00150 0.00250
275.92863 0.00511 0.00286 0.00609 0.00714 0.00536
275.93831 0.00596 0.00297 0.00025 0.00249 0.00149
275.94801 0.00346 0.00222 0.00247 0.00446 0.00074
275.95769 0.00865 0.00764 0.00444 0.00743 0.00765
275.96737 0.00382 0.00676 0.00554 0.00531 0.00505
275.97705 -0.00049 0.00220 0.00294 0.00270 0.00123
275.98672 0.00602 0.00477 0.00355 0.00604 0.00086
275.99640 0.00515 0.00098 0.00098 0.00565 0.00220
276.00608 0.00379 0.00134 0.00207 0.00037 -0.00012
276.01579 0.00562 0.00342 0.00464 0.00466 0.00343
276.02547 0.00283 0.00625 0.00380 0.00456 0.00504
276.03514 0.00346 0.00320 0.00123 0.00248 0.00321
276.04483 0.00358 0.00209 0.00530 0.00434 0.00457
276.05450 0.00246 0.00221 0.00418 0.00124 0.00592
276.06417 0.00320 0.00612 0.00368 0.00296 0.00369
276.07386 0.00783 0.00462 0.00731 0.00343 0.00195
276.08353 0.00536 0.00316 0.00486 0.00220 0.00195
276.09321 0.00293 0.00486 0.00365 0.00367 0.00341
276.10292 0.00662 0.00318 0.00416 0.00566 0.00343
276.11259 0.00185 0.00332 0.00307 0.00260 0.00505
276.12227 0.00443 0.00441 0.00589 0.00519 0.00271
276.13195 0.00382 0.00381 0.00356 0.00580 0.00554
276.14163 -0.00025 0.00294 0.00270 0.00296 0.00197
276.15130 0.00330 0.00402 0.00037 0.00576 0.00354
276.16098 0.00595 0.00133 0.00109 0.00134 0.00401
276.17066 0.00195 0.00145 0.00218 0.00585 0.00413
276.18033 0.00692 0.00036 0.00304 0.00037 0.00425
276.19002 0.00462 0.00412 0.00679 0.00512 0.00365
276.19969 0.00580 0.00217 0.00193 0.00461 0.00411
276.20937 0.00338 0.00481 0.00625 0.00411 0.00652
276.21905 0.00542 0.00586 0.00660 0.00326 0.00517
276.22872 0.00373 0.00275 0.00156 0.00012 0.00132
276.23840 0.00325 0.00659 0.00515 0.00470 0.00613
276.24808 0.00504 0.00430 0.00695 0.00603 0.00240
276.25776 0.00385 0.00216 0.00240 0.00653 0.00289
276.26743 0.00579 0.00289 0.00626 0.00073 0.00506
276.27711 0.00641 0.00422 0.00591 0.00352 0.00423
276.28679 0.00241 0.00336 0.00554 0.00411 0.00675
276.29646 0.00301 0.00469 0.00373 0.00254 0.00350
276.30615 0.00529 0.00432 0.00240 0.00314 0.00312
276.31582 0.00574 0.00499 0.00405 0.00287 0.00167
276.32549 0.00487 0.00556 0.00604 0.00512 0.00606
276.33518 0.00547 0.00686 0.00474 0.00525 0.00357
276.34485 0.00502 0.00429 0.00382 0.00647 0.00478
276.35454 0.00251 0.00274 0.00322 0.00373 0.00227
276.36421 0.00420 0.00442 0.00466 0.00660 0.00587
276.37388 0.00336 0.00311 0.00335 0.00289 0.00360
276.38357 0.00562 0.00489 0.00394 0.00901 0.00442
276.39324 0.00608 0.00250 0.00392 0.00347 0.00536
276.40292 0.00525 0.00617 0.00428 0.00382 0.00405
276.41260 0.00406 0.00594 0.00618 0.00383 0.00572
276.42227 0.00361 0.00335 0.00503 0.00507 0.00457
276.43195 0.00339 0.00265 0.00362 0.00509 0.00338
276.44163 0.00230 0.00157 0.00181 0.00230 0.00229
276.45128 0.00435 0.00217 0.00626 0.00218 0.00387
276.46095 0.00566 0.00347 0.00397 0.00326 0.00397
276.47063 0.00718 0.00477 0.00525 0.00719 0.00668
276.48031 0.00550 0.00310 0.00525 0.00600 0.00191
276.48998 0.00216 0.00360 0.00335 0.00241 0.00360
276.49967 0.00361 0.00480 0.00457 0.00581 0.00627
276.50934 0.00481 0.00791 0.00240 0.00145 0.00265
276.51902 0.00072 0.00528 0.00312 0.00556 0.00289
276.52867 0.00660 0.00443 0.00156 0.00734 0.00709
276.53834 0.00431 0.00406 0.00573 0.00288 0.00766
276.54802 -0.00036 0.00179 0.00394 0.00108 0.00155
276.55770 0.00288 0.00358 0.00191 0.00313 0.00527
276.56737 0.00445 0.00492 0.00276 0.00494 0.00494
276.57705 0.00398 0.00180 0.00084 0.00496 0.00084
276.58673 0.00072 0.00528 0.00432 0.00604 0.00577
276.59638 0.00565 0.00419 0.00132 0.00446 0.00204
276.60605 0.00602 0.00575 0.00192 0.00121 0.00000
276.61573 0.00397 0.00419 0.00012 0.00157 0.00156
276.62541 0.00395 0.00298 0.00609 0.00469 0.00442
276.63508 0.00548 0.00333 0.00333 0.00359 0.00788
276.64474 0.00466 0.00536 0.00274 0.00299 0.00489
276.65441 0.00586 0.00417 0.00560 0.00300 0.00251
276.66409 0.00276 0.00873 0.00371 0.00566 0.00612
276.67377 0.00531 0.00408 0.00457 0.00798 0.00265
276.68344 0.00303 0.00109 0.00520 0.00328 0.00182
276.69310 0.00488 0.00558 0.00461 0.00514 0.00268
276.70277 0.00635 0.00340 0.00438 0.00661 0.00342
276.71244 0.00477 0.00353 0.00647 0.00552 0.00575
276.72213 0.00306 0.00305 0.00012 0.00233 0.00233
276.73180 0.00683 0.00243 0.00268 0.00318 0.00098
276.74145 0.00219 0.00097 0.00606 0.00293 0.00388
276.75113 0.00438 0.00146 0.00291 0.00685 0.00511
276.76080 0.00611 0.00536 0.00366 0.00661 0.00366
276.77045 0.00647 0.00572 0.00305 0.00601 0.00305
276.78013 0.00391 0.00584 0.00341 0.00319 0.00587
276.78981 0.00331 0.00720 0.00232 0.00627 0.00257
276.79948 0.00489 0.00000 0.00463 0.00613 0.00269
276.80913 0.00400 0.00230 0.00447 0.00158 0.00182
276.81881 0.00588 0.00251 0.00491 0.00084 0.00397
276.82848 0.00609 0.00369 0.00417 0.00468 0.00299
276.83817 0.00287 0.00525 0.00764 0.00744 0.00550
276.84781 0.00312 0.00311 0.00287 0.00193 -0.00048
276.85748 0.00288 0.00359 0.00263 0.00865 0.00168
276.86717 0.00372 0.00419 0.00491 0.00325 0.00348
276.87681 0.00468 0.00299 0.00156 0.00253 0.00156
276.88649 0.00647 0.00622 0.00622 0.00192 0.00551
276.89617 0.00502 0.00334 0.00191 0.00456 0.00120
276.90581 0.00577 0.00406 0.00335 0.00313 0.00384
276.91549 0.00374 0.00732 0.00204 0.00254 0.00133
276.92517 0.00399 0.00637 0.00542 0.00497 0.00520
276.93481 0.00471 0.00301 -0.00157 0.00278 0.00592
276.94449 0.00313 0.00168 0.00313 0.00290 0.00506
276.95417 0.00434 0.00456 0.00577 0.00508 0.00481
276.96382 0.00612 0.00323 0.00635 0.00927 0.00756
276.97349 0.00415 0.00319 0.00320 0.00346 0.00320
276.98314 0.00379 0.00543 0.00236 0.00475 0.00189
276.99282 0.00816 0.00035 0.00319 0.00297 0.00178
277.00250 0.00560 0.00321 0.00440 0.00394 0.00370
277.01215 0.00286 0.00000 0.00262 0.00216 0.00478
277.02182 0.00440 0.00367 0.00273 0.00442 0.00606
277.03150 0.00332 0.00354 0.00449 0.00357 0.00402
277.04115 0.00614 0.00564 0.00564 0.00284 0.00613
277.05082 0.00316 0.00735 0.00222 0.00598 0.00456
277.06047 0.00349 0.00486 0.00395 0.00186 0.00674
277.07015 0.00478 0.00499 0.00523 0.00527 0.00641
277.07979 0.00515 0.00444 0.00467 0.00493 0.00351
277.08948 0.00480 0.00362 0.00408 0.00223 0.00222
277.09915 0.00456 0.00361 0.00361 0.00340 0.00480
277.10879 0.00657 0.00818 0.00655 0.00752 0.00540
277.11848 0.00246 0.00105 0.00618 0.00623 0.00386
277.12812 0.00454 0.00452 0.00754 0.00525 0.00779
277.13780 0.00724 0.00744 0.00605 0.00890 0.00630
277.14745 0.00516 0.00397 0.00656 0.00566 0.00423
277.15712 0.00507 0.00693 0.00599 0.00673 0.00436
277.16677 0.00801 0.00610 0.00470 0.00757 0.00682
277.17645 0.00308 0.00448 0.00732 0.00498 0.00496
277.18609 0.00757 0.00401 0.00661 0.00878 0.00757
277.19577 0.00475 0.00474 0.00522 0.00572 0.00143
277.20542 0.00795 0.00627 0.00414 0.00822 0.00675
277.21510 0.00630 0.00438 0.00745 0.00631 0.00416
277.22474 0.00737 0.00709 0.00498 0.00761 0.00618
277.23442 0.00320 0.00813 0.00366 0.00773 0.00628
277.24407 0.00593 0.00709 0.00757 0.00381 0.00499
277.25374 0.00202 0.00296 0.00605 0.00607 0.00511
277.26340 0.00450 0.00755 0.00519 0.00452 0.00947
277.27307 0.00859 0.00481 0.00692 0.00507 0.00530
277.28271 0.00562 0.00513 0.00912 0.00657 0.00515
277.29240 0.00832 0.00548 0.00480 0.00623 0.00692
277.30204 0.00741 0.00316 0.00668 0.00530 0.00670
277.31172 0.00552 0.00596 0.00714 0.00436 0.00340
277.32137 0.00671 0.00527 0.00528 0.00673 0.00858
277.33104 0.00663 0.00754 0.00755 0.00641 0.00685
277.34070 0.00712 0.00709 0.00592 0.00405 0.00285
277.35037 0.00728 0.00654 0.00845 0.00682 0.00394
277.36001 0.00548 0.00521 0.00690 0.00454 0.00477
277.36967 0.00370 0.00346 0.00393 0.00611 0.00562
277.37934 0.00710 0.00562 0.00588 0.00638 0.00733
277.38898 0.00467 0.00394 0.00873 0.00468 0.00347
277.39867 0.00680 0.00605 0.00630 0.00419 0.00585
277.40831 0.00688 0.00637 0.00780 0.00475 0.00640
277.41796 0.00593 0.00473 0.00663 0.00738 0.00641
277.42764 0.00703 0.00557 0.00628 0.00584 0.00702
277.43728 0.00500 0.00569 0.00688 0.00381 0.00238
277.44696 0.00869 0.00559 0.00488 0.00610 0.00322
277.45661 0.00738 0.00735 0.00451 0.00788 0.00642
277.46625 0.00735 0.00330 0.00378 0.00428 0.00356
277.47593 0.00555 0.01000 0.00646 0.00651 0.00860
277.48558 0.00679 0.00514 0.00677 0.00446 0.00609
277.49523 0.00388 0.00552 0.00246 0.00674 0.00200
277.50490 0.00445 0.00677 0.00889 0.00565 0.00539
277.51455 0.00782 0.00686 0.00431 0.00503 0.00665
277.52420 0.00526 0.00478 0.00478 0.00199 0.00315
277.53387 0.00622 0.00550 0.00620 0.00764 0.00504
277.54352 0.00577 0.00388 0.00670 0.00626 0.00648
277.55317 0.00506 0.00433 0.00411 0.00554 0.00341
277.56284 0.00507 0.00505 0.00388 0.00720 0.00483
277.57250 0.00825 0.00820 0.00751 0.00943 0.00823
277.58214 0.00862 0.00741 0.00530 0.00722 0.00578
277.59181 0.01080 0.01003 0.00934 0.01035 0.00722
277.60147 0.00653 0.00721 0.00367 0.00489 0.00486
277.61111 0.01011 0.00533 0.00487 0.00585 0.01011
277.62079 0.00783 0.00708 0.00189 0.00594 0.00403
277.63044 0.00739 0.00619 0.00362 0.00646 0.00785
277.64008 0.00618 0.00593 0.00757 0.00738 0.00292
277.64974 0.00839 0.00465 0.00675 0.00748 0.00630
277.65941 0.00586 0.00421 0.00607 0.00658 0.00562
277.66905 0.00725 0.00981 0.00982 0.00917 0.00726
277.67871 0.00764 0.00714 0.00737 0.00577 0.00856
277.68835 0.00691 0.00549 0.00666 0.00811 0.00527
277.69802 0.00175 0.00499 0.00383 0.00526 0.00408
277.70768 0.00441 0.00578 0.00555 0.00488 0.00533
277.71732 0.00841 0.00654 0.00540 0.00636 0.00633
277.72696 0.00691 0.00872 0.00597 0.00715 0.00829
277.73665 0.00876 0.00665 0.00643 0.00947 0.00760
277.74629 0.00726 0.00449 0.00311 0.00498 0.00681
277.75594 0.00613 0.00748 0.00865 0.00845 0.00797
277.76559 0.00267 0.00567 0.00544 0.00663 0.00475
277.77523 0.00823 0.00567 0.00543 0.00848 0.00545
277.78491 0.00797 0.00380 0.00311 0.00591 0.00590
277.79456 0.00717 0.00506 0.00761 0.00694 0.00784
277.80420 0.00960 0.00725 0.00911 0.00847 0.00750
277.81385 0.00707 0.00589 0.00796 0.00546 0.00661
277.82350 0.00751 0.00862 0.00565 0.00568 0.00798
277.83318 0.00798 0.00588 0.00589 0.00869 0.00590
277.84282 0.00683 0.01072 0.01027 0.00777 0.01122
277.85247 0.00850 0.00847 0.00848 0.00876 0.00756
277.86212 0.00798 0.00819 0.00633 0.00425 0.00728
277.87176 0.00669 0.00763 0.00621 0.00459 0.00435
277.88141 0.00786 0.00853 0.00760 0.00693 0.00788
277.89109 0.00855 0.00595 0.00946 0.00739 0.00854
277.90074 0.00713 0.01013 0.00617 0.00878 0.00805
277.91038 0.00454 0.00893 0.00708 0.00618 0.00617
277.92003 0.00984 0.00819 0.00658 0.00755 0.00684
277.92968 0.00702 0.00793 0.01114 0.00913 0.00957
277.93932 0.00576 0.00504 0.00825 0.00738 0.00829
277.94897 0.00655 0.00585 0.00631 0.00635 0.00609
277.95862 0.00797 0.00793 0.00841 0.00962 0.00796
277.96827 0.00704 0.00771 0.00727 0.00684 0.00936
277.97794 0.00778 0.00729 0.00751 0.00780 0.00639
277.98759 0.01101 0.00957 0.00843 0.00801 0.00845
277.99724 0.00917 0.00381 0.00914 0.00595 0.00824
278.00688 0.00775 0.01026 0.00659 0.00755 0.00637
278.01653 0.00905 0.01085 0.00762 0.01068 0.00857
278.02618 0.00941 0.01075 0.00798 0.00827 0.00638
278.03582 0.00632 0.00816 0.00863 0.00892 0.00865
278.04547 0.01172 0.01050 0.00701 0.01199 0.01008
278.05512 0.00912 0.00838 0.01095 0.01170 0.00981
278.06476 0.00971 0.00898 0.00619 0.01232 0.00643
278.07442 0.00997 0.00642 0.00948 0.00765 0.01021
278.08406 0.01012 0.00961 0.00892 0.01039 0.00825
278.09370 0.00707 0.00516 0.00706 0.00662 0.00613
278.10336 0.00568 0.00637 0.00590 0.00879 0.00686
278.11300 0.01059 0.01412 0.00938 0.01039 0.01107
278.12264 0.00690 0.00973 0.00713 0.00932 0.00904
278.13230 0.00594 0.00546 0.00545 0.01026 0.00380
278.14194 0.00875 0.01179 0.00827 0.01020 0.00780
278.15158 0.00878 0.00662 0.00947 0.00811 0.00784
278.16124 0.00912 0.00980 0.00816 0.00915 0.00936
278.17088 0.01089 0.00732 0.00897 0.00878 0.00804
278.18053 0.00830 0.00827 0.00875 0.00666 0.00853
278.19018 0.00974 0.00641 0.01305 0.00667 0.01047
278.19982 0.01070 0.01090 0.01020 0.01238 0.01093
278.20947 0.00843 0.01147 0.01053 0.00964 0.00985
278.21912 0.01343 0.01008 0.01317 0.00965 0.00821
278.22876 0.00952 0.00996 0.00666 0.01002 0.00785
278.23842 0.01020 0.00946 0.01160 0.01023 0.01090
278.24806 0.00903 0.01088 0.01112 0.00857 0.01282
278.25770 0.01344 0.00818 0.00961 0.01325 0.01345
278.26736 0.00966 0.00675 0.00939 0.01087 0.01013
278.27700 0.01211 0.01018 0.01068 0.01429 0.01116
278.28664 0.01189 0.01184 0.00903 0.01263 0.01070
278.29630 0.00948 0.01270 0.00969 0.01092 0.00971
278.30594 0.01336 0.01472 0.01122 0.01151 0.01054
278.31558 0.01073 0.00834 0.01071 0.00911 0.00908
278.32524 0.01027 0.01001 0.00978 0.01174 0.00911
278.33488 0.01061 0.00871 0.01058 0.01137 0.01109
278.34449 0.00989 0.01032 0.00893 0.01137 0.01272
278.35415 0.00801 0.01032 0.01246 0.00921 0.00920
278.36379 0.01196 0.00865 0.01148 0.01131 0.01009
278.37343 0.01066 0.01084 0.00946 0.00786 0.00877
278.38309 0.01077 0.00934 0.01122 0.00987 0.00938
278.39273 0.01047 0.01371 0.01397 0.01427 0.01188
278.40238 0.01431 0.01238 0.01121 0.01269 0.01407
278.41203 0.01458 0.01175 0.01291 0.01370 0.01366
278.42164 0.01514 0.01136 0.01395 0.01426 0.01372
278.43129 0.01707 0.01375 0.01032 0.01293 0.01080
278.44094 0.01044 0.00901 0.01226 0.01116 0.00996
278.45058 0.01209 0.00904 0.01022 0.01190 0.00977
278.46024 0.01272 0.01106 0.01084 0.01348 0.01155
278.46988 0.01393 0.01318 0.01271 0.01045 0.00970
278.47949 0.01176 0.01102 0.01266 0.01575 0.01246
278.48915 0.01511 0.01321 0.01135 0.01096 0.01139
278.49879 0.01014 0.00869 0.00916 0.01203 0.01153
278.50843 0.01083 0.01195 0.01198 0.01649 0.01318
278.51809 0.01450 0.01445 0.01330 0.01383 0.01099
278.52773 0.01123 0.01002 0.01284 0.00962 0.01357
278.53734 0.01360 0.01379 0.01098 0.01198 0.01266
278.54700 0.01524 0.01471 0.01567 0.01271 0.01570
278.55664 0.01584 0.01326 0.01189 0.01360 0.00937
278.56628 0.01491 0.01323 0.01282 0.01588 0.01561
278.57591 0.01370 0.01320 0.01159 0.01257 0.01184
278.58555 0.01261 0.01027 0.01329 0.01405 0.01470
278.59519 0.01295 0.01198 0.00877 0.01460 0.00925
278.60485 0.01547 0.01704 0.01174 0.01529 0.01362
278.61446 0.01616 0.01473 0.01499 0.01505 0.01316
278.62410 0.01448 0.01216 0.01400 0.01061 0.01312
278.63376 0.01774 0.01767 0.01497 0.01481 0.01476
278.64340 0.01645 0.01455 0.01594 0.01419 0.01531
278.65301 0.01351 0.01460 0.01464 0.01610 0.01605
278.66267 0.01286 0.01467 0.01329 0.01616 0.01566
278.67231 0.01586 0.01647 0.01419 0.01288 0.01376
278.68196 0.01713 0.01383 0.01291 0.01647 0.01363
278.69158 0.01489 0.01619 0.01368 0.01633 0.01535
278.70122 0.01770 0.01346 0.01442 0.01611 0.01422
278.71087 0.01643 0.01476 0.01594 0.01717 0.01597
278.72049 0.01699 0.02039 0.01648 0.01705 0.01217
278.73013 0.01927 0.01716 0.01646 0.01610 0.01605
278.73979 0.01929 0.01437 0.01947 0.01750 0.01953
278.74940 0.01536 0.01671 0.01649 0.01731 0.01511
278.75904 0.01835 0.01405 0.01667 0.01580 0.01270
278.76870 0.01655 0.01319 0.01790 0.01589 0.01933
278.77834 0.01978 0.01878 0.02160 0.02196 0.02119
278.78795 0.01705 0.01860 0.01702 0.01900 0.01754
278.79761 0.01962 0.01699 0.01539 0.01852 0.01661
278.80722 0.01923 0.01776 0.01732 0.01837 0.01547
278.81686 0.02035 0.01588 0.01590 0.01600 0.01804
278.82652 0.02185 0.01995 0.01927 0.01984 0.01859
278.83613 0.02299 0.02060 0.01833 0.02168 0.01856
278.84577 0.01978 0.01809 0.01648 0.01774 0.01723
278.85543 0.02042 0.01756 0.01922 0.02186 0.02064
278.86504 0.02085 0.01710 0.01710 0.02047 0.01599
278.87468 0.02110 0.02082 0.01645 0.01836 0.01926
278.88431 0.02062 0.01798 0.01732 0.01670 0.01829
278.89395 0.02266 0.02003 0.01915 0.02065 0.01802
278.90359 0.02255 0.02589 0.02410 0.02428 0.01996
278.91322 0.02189 0.02412 0.01882 0.02194 0.01769
278.92286 0.02058 0.02471 0.02261 0.02086 0.02012
278.93247 0.02301 0.01965 0.02109 0.02165 0.02249
278.94213 0.02178 0.02013 0.02128 0.02073 0.01929
278.95177 0.02110 0.02101 0.01829 0.02187 0.01995
278.96138 0.02356 0.02216 0.02034 0.02251 0.02269
278.97104 0.02211 0.02063 0.02140 0.02034 0.02096
278.98065 0.02524 0.02350 0.02288 0.02160 0.02228
278.99030 0.02522 0.02189 0.02144 0.02134 0.02106
278.99992 0.02382 0.02347 0.02123 0.02365 0.02379
279.00956 0.02539 0.02255 0.02190 0.02498 0.02237
279.01918 0.02645 0.02456 0.02505 0.02723 0.02236
279.02883 0.02396 0.02565 0.02297 0.02788 0.02416
279.03844 0.02479 0.02335 0.02587 0.02848 0.02320
279.04809 0.02793 0.02853 0.02918 0.02779 0.02773
279.05774 0.02881 0.02253 0.02391 0.02497 0.02216
279.06735 0.02896 0.02569 0.02458 0.02517 0.02781
279.07700 0.02987 0.02771 0.02636 0.03047 0.02669
279.08662 0.02731 0.02815 0.02589 0.02675 0.02483
279.09626 0.02709 0.02719 0.02590 0.02902 0.02571
279.10588 0.03028 0.02473 0.02749 0.02698 0.02689
279.11550 0.03176 0.02754 0.02553 0.03259 0.02835
279.12514 0.03064 0.02939 0.03054 0.03304 0.02810
279.13476 0.03030 0.02955 0.02916 0.03246 0.03031
279.14441 0.03195 0.02796 0.02686 0.02929 0.02733
279.15402 0.03149 0.03025 0.02735 0.03159 0.02807
279.16367 0.03218 0.02981 0.02985 0.03064 0.03036
279.17329 0.03365 0.03169 0.02973 0.03237 0.03183
279.18293 0.03348 0.03542 0.03411 0.03540 0.03140
279.19255 0.03443 0.02902 0.02820 0.03226 0.02867
279.20220 0.03708 0.03446 0.03144 0.03653 0.03753
279.21181 0.03349 0.03670 0.03269 0.03515 0.03570
279.22143 0.03539 0.03227 0.03438 0.03829 0.03330
279.23108 0.03932 0.03394 0.03538 0.04080 0.03222
279.24069 0.03617 0.03627 0.03424 0.03561 0.03277
279.25034 0.03880 0.03640 0.03277 0.04119 0.03832
279.25995 0.03962 0.03749 0.03270 0.04003 0.03511
279.26958 0.03798 0.03647 0.03401 0.03906 0.03595
279.27922 0.04110 0.03797 0.03599 0.04168 0.03840
279.28883 0.04221 0.03834 0.03935 0.04549 0.03848
279.29849 0.04212 0.03897 0.04137 0.03952 0.03867
279.30810 0.04602 0.04077 0.03643 0.04750 0.04253
279.31771 0.04475 0.03906 0.04232 0.04392 0.04039
279.32737 0.04352 0.04391 0.04204 0.04207 0.03800
279.33698 0.04541 0.04143 0.04063 0.04531 0.04189
279.34659 0.04606 0.04221 0.03879 0.04768 0.04282
279.35625 0.04744 0.04353 0.04349 0.05036 0.04370
279.36586 0.05047 0.04667 0.04382 0.04864 0.04148
279.37547 0.05051 0.04677 0.04366 0.05250 0.04373
279.38513 0.05174 0.04614 0.04406 0.04997 0.04632
279.39474 0.05498 0.05111 0.04653 0.05569 0.05146
279.40435 0.05437 0.04824 0.04899 0.05352 0.05058
279.41401 0.05510 0.05029 0.04886 0.05464 0.05067
279.42362 0.05653 0.05467 0.05082 0.05524 0.05230
279.43323 0.05728 0.05219 0.05274 0.05840 0.05307
279.44289 0.05988 0.05370 0.05160 0.06117 0.05551
279.45250 0.06116 0.05646 0.05635 0.05764 0.05530
279.46211 0.06137 0.05275 0.05397 0.06329 0.05527
279.47177 0.06218 0.05659 0.05111 0.05701 0.05870
279.48138 0.06418 0.05839 0.05659 0.06458 0.06119
279.49099 0.06964 0.05973 0.05579 0.06940 0.06009
279.50061 0.06649 0.06302 0.06031 0.07438 0.06305
279.51026 0.07275 0.06391 0.06219 0.07256 0.06427
279.51988 0.07354 0.06797 0.06601 0.07607 0.06520
279.52949 0.07562 0.07250 0.06642 0.07203 0.06864
279.53911 0.07733 0.07248 0.06681 0.07935 0.07367
279.54876 0.07952 0.07162 0.06938 0.07952 0.07049
279.55837 0.08297 0.07624 0.06611 0.08350 0.07156
279.56799 0.08117 0.07352 0.07235 0.08677 0.07399
279.57761 0.08451 0.07831 0.07227 0.08935 0.07807
279.58725 0.09289 0.08101 0.07357 0.09498 0.08071
279.59687 0.09300 0.08508 0.07965 0.09158 0.08216
279.60649 0.09503 0.08495 0.07928 0.09478 0.08331
279.61610 0.10220 0.08939 0.08270 0.10193 0.08846
279.62572 0.09803 0.09377 0.08377 0.10315 0.09130
279.63537 0.10285 0.09560 0.08524 0.10510 0.08923
279.64498 0.10802 0.10117 0.09144 0.11240 0.09644
279.65460 0.11022 0.10146 0.09486 0.11638 0.09850
279.66422 0.11200 0.10422 0.09623 0.11320 0.09960
279.67383 0.11733 0.10266 0.09552 0.12240 0.10311
279.68348 0.12113 0.11289 0.09935 0.12158 0.10429
279.69310 0.12447 0.11460 0.10326 0.13023 0.11220
279.70271 0.12949 0.11672 0.10639 0.13029 0.11722
279.71232 0.13791 0.12307 0.11075 0.14206 0.12040
279.72195 0.14254 0.12373 0.11404 0.14339 0.12236
279.73156 0.14745 0.12848 0.11728 0.15135 0.13069
279.74117 0.15029 0.13938 0.12585 0.15544 0.13635
279.75083 0.16081 0.14142 0.12863 0.16340 0.13901
279.76044 0.16187 0.14662 0.13404 0.16724 0.14470
279.77006 0.17147 0.15759 0.13989 0.17746 0.15156
279.77968 0.17461 0.15772 0.14494 0.18341 0.15821
279.78929 0.18672 0.16399 0.15384 0.19569 0.16266
279.79891 0.19500 0.17550 0.15826 0.20255 0.16805
279.80853 0.20445 0.18434 0.15879 0.20824 0.17819
279.81814 0.21662 0.19061 0.16929 0.21774 0.18394
279.82776 0.22077 0.19736 0.17902 0.22905 0.19339
279.83740 0.22865 0.20686 0.18315 0.24000 0.19863
279.84702 0.24124 0.21445 0.19304 0.25128 0.21384
279.85664 0.25179 0.22693 0.20012 0.26327 0.21949
279.86625 0.26113 0.23531 0.20821 0.27197 0.23026
279.87587 0.27479 0.24271 0.21574 0.28366 0.24390
279.88549 0.28724 0.25992 0.22970 0.30214 0.24825
279.89510 0.29854 0.26836 0.23897 0.31348 0.26205
279.90472 0.31121 0.27578 0.25290 0.32319 0.26892
279.91434 0.32785 0.28761 0.25766 0.34004 0.28603
279.92395 0.34543 0.30250 0.27195 0.35139 0.29938
279.93357 0.35845 0.31472 0.28445 0.37210 0.31855
279.94319 0.37925 0.32991 0.29548 0.38855 0.31976
279.95280 0.39576 0.34707 0.31010 0.40352 0.34160
279.96241 0.41258 0.36400 0.31874 0.42143 0.35533
279.97204 0.43262 0.38534 0.33973 0.44056 0.37678
279.98165 0.44858 0.39904 0.35303 0.46458 0.38572
279.99126 0.47348 0.41669 0.37000 0.48787 0.40369
280.00089 0.49843 0.43975 0.38949 0.51062 0.42593
280.01050 0.52424 0.45641 0.40849 0.54375 0.45215
280.02012 0.54458 0.47758 0.42550 0.56432 0.47027
280.02974 0.57244 0.50203 0.43985 0.59413 0.49420
280.03935 0.59813 0.52282 0.45820 0.61998 0.52079
280.04897 0.62433 0.55152 0.48595 0.65016 0.53554
280.05858 0.66204 0.58221 0.51355 0.67813 0.56823
280.06820 0.69875 0.60847 0.53120 0.71763 0.59638
280.07782 0.73410 0.63522 0.55695 0.75435 0.61774
280.08743 0.76369 0.66858 0.58804 0.78733 0.64693
280.09705 0.79538 0.69766 0.60811 0.82483 0.68223
280.10667 0.84724 0.73418 0.64100 0.86838 0.72175
280.11628 0.88442 0.77106 0.67728 0.91947 0.75685
280.12590 0.93970 0.81562 0.71307 0.97805 0.79889
280.13552 0.99332 0.85029 0.74537 1.02606 0.83665
280.14510 1.04495 0.90352 0.79053 1.08653 0.88366
280.15471 1.09986 0.94017 0.82522 1.15070 0.92793
280.16434 1.17121 1.00431 0.87389 1.21093 0.98593
280.17395 1.22850 1.06206 0.91689 1.27804 1.03822
280.18356 1.29620 1.11480 0.97159 1.36037 1.09478
280.19319 1.38671 1.18818 1.01695 1.44528 1.15077
280.20280 1.46720 1.24538 1.08161 1.53724 1.22539
280.21241 1.55271 1.32337 1.13899 1.62913 1.29055
280.22204 1.65398 1.40011 1.21056 1.73596 1.38293
280.23162 1.75723 1.48673 1.27971 1.85575 1.46972
280.24124 1.87223 1.58182 1.34617 1.96933 1.55208
280.25085 1.99274 1.68807 1.43180 2.11911 1.64726
280.26047 2.14051 1.77530 1.51155 2.26214 1.76735
280.27009 2.27811 1.90430 1.60566 2.43460 1.88276
280.27970 2.46270 2.03554 1.72426 2.62688 2.02496
280.28929 2.63198 2.18029 1.84025 2.82410 2.16322
280.29891 2.83020 2.34145 1.96099 3.06355 2.30908
280.30852 3.06210 2.51248 2.10876 3.30559 2.49484
280.31814 3.30512 2.70891 2.25221 3.57152 2.68388
280.32776 3.55607 2.90948 2.40538 3.88096 2.90506
280.33737 3.84920 3.13423 2.59131 4.23117 3.12935
280.34695 4.18950 3.39062 2.77302 4.58479 3.37359
280.35658 4.53982 3.67627 2.99918 4.99338 3.67353
280.36619 4.96968 3.99373 3.24737 5.46440 3.98869
280.37580 5.39368 4.32852 3.49497 6.00613 4.34551
280.38543 5.88321 4.72288 3.80573 6.56705 4.73408
280.39501 6.45731 5.15308 4.13356 7.18229 5.15513
280.40462 7.08492 5.63705 4.49515 7.91528 5.67383
280.41424 7.72862 6.13890 4.91791 8.63670 6.16818
280.42386 8.46932 6.71332 5.33333 9.47110 6.77498
280.43344 9.24786 7.37649 5.86397 10.41681 7.44221
280.44306 10.15573 8.10801 6.41348 11.37387 8.16194
280.45268 11.13021 8.86880 6.99557 12.40298 8.95895
280.46229 12.14642 9.70934 7.66977 13.48173 9.76747
280.47188 13.30899 10.70634 8.44680 14.70459 10.75488
280.48149 14.42042 11.62332 9.22259 15.87115 11.71532
280.49112 15.64412 12.75255 10.11831 17.08556 12.78007
280.50070 16.97013 13.88464 11.09877 18.36941 13.95224
280.51031 18.21462 15.01585 12.12358 19.52735 15.04184
280.51994 19.44432 16.25014 13.19182 20.60703 16.20973
280.52955 20.68201 17.43013 14.36717 21.67370 17.36730
280.53913 21.78346 18.64319 15.53975 22.55329 18.47444
280.54875 22.83985 19.82239 16.74360 23.28541 19.57291
280.55837 23.80741 21.01558 17.99947 23.93002 20.61773
280.56795 24.64582 21.96874 19.10195 24.34283 21.45802
280.57757 25.39272 22.85493 20.31520 24.71167 22.27711
280.58719 25.92162 23.63729 21.28988 24.94060 22.87195
280.59677 26.48756 24.28351 22.19952 25.02978 23.38963
280.60639 26.71602 24.77008 23.00630 25.02653 23.71376
280.61601 26.87119 25.10730 23.66265 24.88460 23.94618
280.62559 27.02682 25.28056 24.20621 24.68746 23.99947
280.63521 26.95689 25.35291 24.58382 24.41969 23.96319
280.64482 26.95814 25.35073 24.85712 24.10935 23.84039
280.65441 26.74078 25.16028 25.02438 23.72148 23.60221
280.66403 26.42816 24.91061 24.95490 23.38100 23.35972
280.67361 26.27379 24.71968 24.89265 22.92378 23.00710
280.68322 25.84576 24.37974 24.64969 22.56045 22.71126
280.69285 25.55310 23.98983 24.40276 22.18801 22.33958
280.70243 25.24858 23.67214 24.09503 21.69786 21.90667
280.71205 24.86980 23.28940 23.70775 21.43569 21.63023
280.72164 24.52137 22.82227 23.36830 21.00107 21.13407
280.73125 24.06639 22.45594 22.90482 20.57851 20.75851
280.74087 23.69113 22.05068 22.52193 20.31434 20.42982
280.75045 23.19549 21.56739 22.05852 19.81906 19.91045
280.76007 22.84452 21.31414 21.77108 19.55545 19.74676
280.76966 22.33910 20.83526 21.32426 19.11675 19.27613
280.77927 21.85756 20.52969 20.97566 18.76076 18.93675
280.78886 21.39280 20.13950 20.62526 18.35186 18.60283
280.79848 20.83795 19.77217 20.26553 17.91123 18.25069
280.80809 20.24903 19.32325 19.89525 17.44260 17.90496
280.81767 19.69327 18.94684 19.53044 16.99794 17.53924
280.82730 19.05902 18.53839 19.11866 16.51377 17.16169
280.83688 18.40294 18.08645 18.81594 15.96461 16.80500
280.84649 17.69733 17.66827 18.45417 15.45446 16.40114
280.85609 16.95104 17.19914 18.04957 14.87403 15.96371
280.86570 16.23689 16.68290 17.62559 14.26600 15.53460
280.87528 15.41969 16.17040 17.18310 13.67227 15.03536
280.88490 14.59205 15.56834 16.65765 12.99286 14.56048
280.89449 13.83836 15.02011 16.23476 12.38664 14.07781
280.90410 12.97624 14.34344 15.74749 11.69546 13.48013
280.91369 12.26357 13.74480 15.23202 11.08578 12.97530
280.92331 11.38280 13.03153 14.62808 10.42657 12.31173
280.93290 10.64523 12.40056 14.07319 9.80453 11.75375
280.94251 9.92209 11.72234 13.49826 9.17191 11.12787
280.95209 9.20604 11.10176 12.89788 8.58779 10.55310
280.96172 8.57828 10.42596 12.28749 8.00120 9.98811
280.97130 7.91309 9.74537 11.62228 7.41607 9.35441
280.98088 7.34737 9.13971 11.02727 6.89367 8.81510
280.99050 6.74413 8.51495 10.36670 6.37998 8.22938
281.00009 6.22246 7.95097 9.73817 5.92748 7.68829
281.00970 5.71774 7.36904 9.10201 5.47870 7.15089
281.01929 5.28647 6.85894 8.52516 5.08519 6.68540
281.02891 4.89008 6.39293 7.95406 4.68291 6.21992
281.03849 4.50044 5.88672 7.42636 4.33249 5.77901
281.04808 4.13458 5.44883 6.87035 3.98098 5.31753
281.05769 3.83061 5.03353 6.38381 3.69371 4.92276
281.06728 3.52786 4.64057 5.94450 3.43424 4.56955
281.07690 3.24176 4.29082 5.48043 3.15912 4.21481
281.08648 3.00407 3.97471 5.07735 2.93635 3.93060
281.09606 2.76045 3.67278 4.70034 2.70744 3.61102
281.10569 2.56611 3.37852 4.35611 2.51094 3.34701
281.11527 2.35290 3.13306 4.00249 2.33652 3.08920
281.12488 2.19947 2.90519 3.72525 2.16947 2.86870
281.13448 2.03925 2.67646 3.44900 2.01232 2.65138
281.14406 1.88694 2.49266 3.18406 1.87877 2.46143
281.15367 1.75469 2.30615 2.95205 1.73834 2.29397
281.16326 1.64525 2.13718 2.73847 1.62655 2.12825
281.17285 1.53353 1.99991 2.53054 1.50577 1.97693
281.18247 1.42562 1.86093 2.36276 1.41104 1.84092
281.19205 1.32463 1.72294 2.16920 1.31213 1.71153
281.20163 1.25054 1.60872 2.03064 1.23310 1.59497
281.21126 1.16297 1.49503 1.87234 1.15068 1.48079
281.22084 1.09161 1.40741 1.75414 1.08288 1.38142
281.23042 1.02384 1.30858 1.63211 1.01375 1.30238
281.24001 0.94869 1.20790 1.51524 0.94506 1.20534
281.24963 0.90406 1.13888 1.42709 0.89546 1.12555
281.25921 0.84054 1.06560 1.32800 0.84034 1.06022
281.26880 0.79216 1.00908 1.24047 0.79274 0.99347
281.27842 0.75267 0.94688 1.16425 0.74312 0.93406
281.28800 0.70569 0.89509 1.08949 0.70421 0.87835
281.29759 0.66587 0.84160 1.02391 0.65808 0.83171
281.30717 0.62703 0.78191 0.95290 0.62441 0.77148
281.31679 0.59577 0.73906 0.90628 0.59102 0.73793
281.32638 0.56484 0.69866 0.85122 0.56243 0.68940
281.33596 0.52779 0.65358 0.79504 0.53286 0.64937
281.34554 0.50406 0.62207 0.75548 0.49867 0.61777
281.35517 0.47491 0.58155 0.70308 0.47529 0.57475
281.36475 0.44976 0.55796 0.66943 0.45069 0.55374
281.37433 0.43060 0.52147 0.63477 0.43257 0.51923
281.38392 0.40376 0.49696 0.59954 0.40442 0.48921
281.39354 0.39054 0.47255 0.56447 0.38843 0.46549
281.40313 0.36781 0.44889 0.53596 0.36809 0.44058
281.41271 0.35163 0.42468 0.50740 0.34721 0.42196
281.42229 0.33957 0.41200 0.48209 0.33543 0.40396
281.43189 0.32314 0.38683 0.45361 0.31908 0.37670
281.44150 0.30971 0.36752 0.43706 0.30747 0.36249
281.45108 0.29600 0.35623 0.41275 0.29449 0.34578
281.46068 0.28188 0.33648 0.39355 0.27926 0.33083
281.47026 0.27142 0.32101 0.37536 0.26590 0.31313
281.47984 0.25772 0.30242 0.35354 0.25584 0.29919
281.48943 0.24671 0.29366 0.33786 0.24482 0.29019
281.49905 0.23478 0.27347 0.31879 0.23440 0.27389
281.50863 0.22904 0.26759 0.30596 0.22696 0.26300
281.51822 0.21789 0.25836 0.29507 0.21591 0.25364
281.52780 0.20770 0.24391 0.28379 0.20908 0.23825
281.53739 0.20151 0.23698 0.27025 0.20244 0.23372
281.54698 0.19195 0.22564 0.26195 0.18997 0.22128
281.55656 0.18554 0.21441 0.24860 0.18584 0.21555
281.56614 0.17836 0.20286 0.23453 0.17430 0.20126
281.57577 0.17119 0.19675 0.22867 0.17079 0.19221
281.58535 0.16610 0.19001 0.21811 0.16637 0.18581
281.59494 0.16007 0.18327 0.21013 0.16238 0.18088
281.60452 0.15476 0.17491 0.20074 0.15285 0.16969
281.61411 0.14881 0.16940 0.19611 0.15018 0.16892
281.62370 0.14332 0.16343 0.18863 0.14506 0.16602
281.63328 0.13762 0.15874 0.17801 0.14030 0.15632
281.64286 0.13524 0.14923 0.17476 0.12966 0.15076
281.65246 0.12872 0.14285 0.16397 0.12408 0.14128
281.66204 0.12414 0.13989 0.15899 0.12356 0.13658
281.67162 0.12038 0.13847 0.15597 0.11757 0.13443
281.68121 0.11660 0.13655 0.14855 0.11889 0.13165
281.69083 0.11161 0.12788 0.14296 0.11266 0.12267
281.70041 0.10819 0.12543 0.13836 0.10723 0.12079
281.71000 0.10842 0.12079 0.13310 0.10447 0.11828
281.71959 0.10258 0.11562 0.13043 0.10315 0.11626
281.72917 0.10065 0.11178 0.12513 0.10101 0.10989
281.73876 0.10018 0.11281 0.12509 0.09939 0.10953
281.74834 0.09317 0.10412 0.11782 0.09475 0.10626
281.75793 0.08885 0.10234 0.11450 0.09345 0.09852
281.76752 0.09161 0.10038 0.11099 0.08692 0.09825
281.77710 0.08836 0.09674 0.10460 0.08552 0.09617
281.78668 0.08453 0.09083 0.10232 0.08182 0.08940
281.79628 0.08141 0.09069 0.09877 0.07946 0.08926
281.80586 0.07685 0.08623 0.09502 0.07926 0.08346
281.81545 0.07762 0.08636 0.09253 0.07766 0.08744
281.82503 0.07238 0.08652 0.09198 0.07812 0.08114
281.83462 0.07638 0.08099 0.09106 0.07558 0.07983
281.84421 0.07167 0.07992 0.08828 0.07076 0.07982
281.85376 0.06786 0.07457 0.08550 0.06907 0.07312
281.86334 0.06702 0.07503 0.08125 0.06596 0.07197
281.87293 0.06346 0.07261 0.07769 0.06622 0.06847
281.88252 0.06487 0.07246 0.08002 0.06487 0.06949
281.89210 0.06324 0.06771 0.07470 0.06173 0.06770
281.90169 0.06198 0.06593 0.07571 0.06001 0.06625
281.91127 0.05892 0.06535 0.06943 0.05935 0.06300
281.92086 0.05991 0.06231 0.07009 0.05727 0.06420
281.93045 0.05585 0.06180 0.06697 0.05513 0.05754
281.94003 0.05808 0.06385 0.06766 0.05832 0.05908
281.94962 0.05366 0.05881 0.06425 0.05162 0.05814
281.95921 0.05440 0.05917 0.06204 0.05194 0.05530
281.96876 0.05475 0.05652 0.06115 0.04935 0.05589
281.97834 0.05251 0.05679 0.05880 0.05070 0.05355
281.98793 0.04776 0.05423 0.05621 0.04748 0.05145
281.99752 0.04719 0.05389 0.05513 0.04820 0.04978
282.00710 0.04497 0.05195 0.05705 0.04859 0.04932
282.01669 0.04754 0.05146 0.05680 0.04698 0.05096
282.02627 0.04781 0.04561 0.05259 0.04612 0.04599
282.03587 0.04444 0.04835 0.05125 0.04368 0.04486
282.04542 0.04111 0.04610 0.04762 0.04273 0.04754
282.05500 0.04305 0.04667 0.04629 0.04117 0.04666
282.06459 0.04094 0.04347 0.04719 0.04421 0.04344
282.07418 0.04171 0.04448 0.04469 0.03861 0.04205
282.08376 0.04052 0.04378 0.04507 0.03891 0.04027
282.09335 0.04064 0.04277 0.04536 0.03818 0.04129
282.10290 0.03899 0.03942 0.04354 0.03910 0.04049
282.11249 0.03664 0.03989 0.04364 0.03694 0.03924
282.12208 0.03547 0.03769 0.04370 0.03412 0.03678
282.13166 0.03672 0.03937 0.04649 0.03876 0.04166
282.14124 0.03607 0.04106 0.04064 0.03722 0.03793
282.15081 0.03371 0.03825 0.04108 0.03552 0.03666
282.16039 0.03337 0.03623 0.03839 0.03431 0.03679
282.16997 0.03518 0.03633 0.03917 0.03400 0.03434
282.17956 0.03629 0.03576 0.03820 0.03557 0.03718
282.18912 0.03384 0.03480 0.03763 0.03226 0.03276
282.19870 0.03160 0.03619 0.03558 0.03020 0.03458
282.20829 0.02909 0.03503 0.03590 0.03208 0.03159
282.21787 0.03051 0.02913 0.03486 0.02978 0.03094
282.22742 0.03143 0.02983 0.03244 0.02833 0.03102
282.23702 0.03084 0.03563 0.03564 0.02906 0.03045
282.24660 0.03023 0.03248 0.03337 0.02737 0.03241
282.25619 0.02873 0.02861 0.03224 0.02776 0.02725
282.26574 0.03014 0.03068 0.03307 0.02790 0.02930
282.27533 0.03256 0.02994 0.02849 0.02990 0.02730
282.28492 0.02399 0.02746 0.02997 0.02471 0.02776
282.29447 0.02585 0.02515 0.02811 0.02617 0.02648
282.30405 0.02683 0.02628 0.02985 0.02603 0.02614
282.31365 0.02451 0.02567 0.02587 0.02647 0.02638
282.32320 0.02905 0.02684 0.02832 0.02535 0.02715
282.33278 0.02374 0.02638 0.02493 0.02107 0.02500
282.34237 0.02535 0.02611 0.02864 0.02608 0.02578
282.35193 0.02263 0.02508 0.02487 0.02039 0.02304
282.36151 0.02403 0.02227 0.02813 0.02597 0.02483
282.37110 0.02336 0.02450 0.02263 0.02379 0.02374
282.38065 0.02455 0.02361 0.02764 0.02269 0.02302
282.39024 0.02355 0.02262 0.02498 0.02214 0.02228
282.39983 0.02023 0.01951 0.02145 0.01941 0.01979
282.40938 0.02040 0.02432 0.02416 0.02342 0.02188
282.41896 0.02359 0.02179 0.02290 0.02324 0.02210
282.42855 0.02094 0.02490 0.02621 0.02186 0.02156
282.43811 0.02446 0.02500 0.02333 0.02477 0.02230
282.44770 0.02086 0.01844 0.02274 0.01877 0.02107
282.45725 0.02267 0.01854 0.01814 0.01996 0.01882
282.46683 0.02070 0.02040 0.02171 0.01839 0.02153
282.47643 0.01713 0.01876 0.02217 0.01910 0.01798
282.48598 0.02111 0.02146 0.02296 0.01945 0.01786
282.49556 0.01940 0.02015 0.01998 0.01648 0.01832
282.50512 0.01813 0.01721 0.01912 0.01860 0.01643
282.51471 0.01740 0.01879 0.01926 0.01681 0.01865
282.52429 0.01557 0.01847 0.01890 0.01478 0.01536
282.53385 0.01813 0.01807 0.02146 0.02200 0.01708
282.54343 0.01920 0.01829 0.01936 0.01717 0.01985
282.55298 0.01550 0.01672 0.01755 0.01639 0.01592
282.56258 0.01810 0.01782 0.01786 0.01732 0.01474
282.57213 0.01623 0.01807 0.02042 0.01861 0.01833
282.58171 0.01633 0.01694 0.02074 0.01725 0.01591
282.59127 0.01783 0.02091 0.01650 0.01807 0.01993
282.60086 0.01914 0.01525 0.02037 0.01492 0.01702
282.61041 0.01398 0.01735 0.01992 0.01681 0.01463
282.62000 0.01591 0.01585 0.01502 0.01724 0.01951
282.62955 0.01379 0.01542 0.01777 0.01403 0.01419
282.63914 0.01829 0.01485 0.01677 0.02046 0.01512
282.64870 0.01754 0.01811 0.01727 0.01651 0.01519
282.65828 0.01477 0.01579 0.01560 0.01526 0.01414
282.66784 0.01815 0.01681 0.01641 0.01693 0.01370
282.67742 0.01662 0.01825 0.01870 0.01667 0.01534
282.68698 0.01615 0.01462 0.01271 0.01386 0.01358
282.69657 0.01402 0.01352 0.01652 0.01659 0.01485
282.70612 0.01455 0.01534 0.01474 0.01479 0.01601
282.71570 0.01207 0.01056 0.01474 0.01378 0.01352
282.72527 0.01382 0.01375 0.01398 0.01216 0.01401
282.73485 0.01689 0.01745 0.01390 0.01778 0.01416
282.74440 0.01509 0.01483 0.01484 0.01429 0.01509
282.75399 0.01418 0.01435 0.01374 0.01317 0.01398
282.76354 0.01430 0.01403 0.01658 0.01369 0.01600
282.77310 0.01267 0.01282 0.01496 0.01248 0.01584
282.78269 0.01217 0.01357 0.01129 0.01197 0.01531
282.79224 0.01509 0.01397 0.01400 0.01131 0.01256
282.80182 0.01488 0.01333 0.01380 0.01512 0.01212
282.81139 0.01360 0.01102 0.01231 0.00963 0.01001
282.82094 0.01309 0.01285 0.01308 0.01357 0.01119
282.83052 0.01387 0.01170 0.01511 0.01328 0.01280
282.84008 0.01091 0.01191 0.01403 0.01093 0.00963
282.84966 0.01168 0.01122 0.01038 0.01129 0.01273
282.85923 0.01028 0.01109 0.01256 0.00905 0.01028
282.86878 0.01281 0.01174 0.01196 0.01139 0.01157
282.87836 0.01400 0.01458 0.01438 0.01364 0.01359
282.88792 0.01302 0.01296 0.01276 0.01180 0.01469
282.89747 0.01440 0.01245 0.01307 0.01315 0.01228
282.90706 0.01106 0.01355 0.01272 0.01215 0.01190
282.91662 0.01190 0.00728 0.01062 0.01067 0.00980
282.92620 0.01228 0.00974 0.01142 0.01293 0.00791
282.93575 0.01265 0.01260 0.01345 0.01351 0.01244
282.94532 0.01018 0.01035 0.01323 0.01268 0.01018
282.95487 0.01198 0.00946 0.01050 0.01077 0.01012
282.96445 0.00960 0.00997 0.01121 0.01108 0.00960
282.97401 0.01340 0.01211 0.01192 0.01115 0.01320
282.98356 0.00952 0.01173 0.01114 0.01161 0.01054
282.99315 0.00474 0.00760 0.00946 0.00766 0.00846
283.00271 0.00773 0.01098 0.01101 0.01003 0.00918
283.01226 0.01243 0.01319 0.01012 0.01245 0.01158
283.02184 0.01135 0.00863 0.01236 0.01220 0.00969
283.03141 0.00994 0.01155 0.01217 0.01039 0.01119
283.04096 0.00747 0.01034 0.00807 0.00791 0.00643
283.05052 0.00918 0.00832 0.01204 0.01087 0.01104
283.06010 0.01386 0.01131 0.01216 0.00889 0.01366
283.06965 0.01130 0.00666 0.00771 0.01196 0.00480
283.07922 0.00733 0.00792 0.01064 0.00798 0.00921
283.08877 0.00817 0.00834 0.00752 0.01009 0.00964
283.09835 0.01124 0.00912 0.01038 0.01002 0.01229
283.10791 0.01020 0.00974 0.00996 0.00980 0.00978
283.11746 0.00962 0.00937 0.00856 0.00882 0.00817
283.12702 0.00831 0.01076 0.01077 0.00876 0.00914
283.13661 0.00860 0.00670 0.00650 0.00592 0.00631
283.14616 0.01136 0.01007 0.01070 0.01118 0.00907
283.15571 0.00797 0.00815 0.00815 0.00883 0.00838
283.16527 0.00967 0.00820 0.01068 0.00908 0.00864
283.17483 0.00658 0.00758 0.00840 0.00618 0.00863
283.18441 0.00545 0.00686 0.00790 0.00752 0.00545
283.19397 0.00663 0.00826 0.00723 0.00769 0.00725
283.20352 0.01001 0.00854 0.01019 0.00673 0.00918
283.21308 0.00787 0.00660 0.00952 0.00956 0.00849
283.22264 0.00824 0.01150 0.00967 0.00724 0.00969
283.23219 0.00486 0.00567 0.00712 0.00571 0.00569
283.24178 0.00495 0.00636 0.00822 0.00310 0.00516
283.25133 0.00749 0.00809 0.00852 0.01108 0.00875
283.26089 0.00812 0.01079 0.00955 0.01085 0.00687
283.27045 0.00487 0.00505 0.00527 0.00467 0.00487
283.28000 0.00696 0.00714 0.00756 0.00697 0.00655
283.28955 0.01163 0.00641 0.00931 0.00771 0.00852
283.29911 0.00798 0.00753 0.00816 0.00655 0.00694
283.30867 0.00746 0.00764 0.00910 0.00894 0.00788
283.31825 0.00917 0.00581 0.00893 0.00773 0.00687
283.32781 0.00983 0.00750 0.00813 0.01092 0.00941
283.33736 0.00621 0.00555 0.00451 0.00623 0.00410
283.34691 0.01006 0.00981 0.01151 0.01074 0.00985
283.35648 0.00835 0.00979 0.00833 0.00880 0.01046
283.36603 0.00985 0.00668 0.00899 0.00945 0.00964
283.37558 0.00809 0.00701 0.00722 0.00642 0.00766
283.38514 0.00992 0.00885 0.01091 0.01057 0.00741
283.39469 0.00790 0.00954 0.00996 0.00833 0.00745
283.40425 0.00927 0.00737 0.00842 0.00805 0.00697
283.41381 0.00698 0.00610 0.00758 0.00699 0.00443
283.42336 0.00894 0.00680 0.00723 0.00686 0.00557
283.43291 0.00894 0.00387 0.00912 0.00855 0.00746
283.44247 0.00326 0.00408 0.00702 0.00474 0.00746
283.45206 0.00816 0.00876 0.00919 0.00630 0.00712
283.46162 0.00845 0.00510 0.00760 0.00639 0.00595
283.47117 0.00744 0.00804 0.00699 0.00725 0.00764
283.48072 0.00960 0.00874 0.00935 0.01026 0.00793
283.49029 0.00921 0.00939 0.00605 0.00860 0.00941
283.49984 0.00604 0.00644 0.00624 0.00898 0.00749
283.50939 0.00673 0.00505 0.00775 0.00862 0.00445
283.51895 0.00588 0.00811 0.00586 0.00589 0.00588
283.52850 0.00871 0.00826 0.00765 0.00915 0.00933
283.53806 0.00663 0.00599 0.00557 0.00499 0.00704
283.54762 0.00476 0.00392 0.00702 0.00498 0.00331
283.55714 0.00875 0.00768 0.00914 0.00939 0.00833
283.56669 0.00634 0.00611 0.00923 0.00490 0.00717
283.57625 0.00772 0.01081 0.00896 0.01068 0.00877
283.58580 0.00668 0.00769 0.00479 0.00796 0.00563
283.59536 0.00696 0.00465 0.00693 0.00614 0.00570
283.60492 0.00594 0.00446 0.00592 0.00449 0.00572
283.61447 0.00735 0.00669 0.00629 0.00840 0.00734
283.62402 0.00813 0.00728 0.00770 0.00878 0.00792
283.63358 0.00699 0.00655 0.00697 0.00722 0.00678
283.64314 0.00639 0.00595 0.00555 0.00805 0.00494
283.65270 0.00892 0.00787 0.00706 0.00853 0.00687
283.66225 0.00555 0.00554 0.00738 0.00701 0.00637
283.67180 0.00874 0.00687 0.00707 0.00691 0.00689
283.68136 0.00390 0.00470 0.00410 0.00350 0.00184
283.69089 0.00447 0.00567 0.00649 0.00326 0.00406
283.70044 0.00726 0.00826 0.00623 0.00626 0.00706
283.71000 0.00675 0.00611 0.00734 0.00553 0.00573
283.71955 0.00706 0.00459 0.00704 0.00585 0.00379
283.72910 0.00649 0.00524 0.00606 0.00672 0.00938
283.73867 0.00650 0.00708 0.00565 0.00609 0.00504
283.74822 0.00983 0.00608 0.00608 0.00757 0.00796
283.75777 0.00565 0.00686 0.00666 0.00567 0.00627
283.76730 0.00605 0.00745 0.00501 0.00483 0.00789
283.77685 0.00452 0.00654 0.00511 0.00453 0.00267
283.78641 0.00521 0.00743 0.00539 0.00583 0.00480
283.79597 0.00481 0.00541 0.00459 0.00462 0.00624
283.80552 0.00667 0.00377 0.00521 0.00648 0.00379
283.81508 0.00501 0.00397 0.00662 0.00543 0.00480
283.82460 0.00665 0.00723 0.00520 0.00708 0.00767
283.83416 0.00715 0.00448 0.00550 0.00820 0.00592
283.84372 0.00777 0.00488 0.00693 0.00656 0.00531
283.85327 0.00723 0.00782 0.00477 0.00562 0.00743
283.86282 0.00899 0.01121 0.00857 0.00615 0.00797
283.87235 0.00585 0.00480 0.00685 0.00751 0.00544
283.88190 0.00408 0.00488 0.00570 0.00594 0.00571
283.89146 0.00429 0.00448 0.00529 0.00491 0.00551
283.90102 0.00754 0.00122 0.00609 0.00797 0.00529
283.91054 0.00702 0.00496 0.00496 0.00703 0.00416
283.92009 0.00811 0.00665 0.00666 0.00548 0.00608
283.92965 0.00760 0.00615 0.00757 0.00660 0.00618
283.93921 0.00579 0.00415 0.00456 0.00581 0.00498
283.94873 0.00881 0.00612 0.00511 0.00801 0.00777
283.95829 0.00496 0.00535 0.00618 0.00601 0.00433
283.96784 0.00559 0.00454 0.00227 0.00581 0.00620
283.97739 0.00633 0.00692 0.00610 0.00718 0.00798
283.98693 0.00510 0.00364 0.00488 0.00491 0.00407
283.99648 0.00684 0.00557 0.00764 0.00623 0.00497
284.00604 0.00666 0.00540 0.00851 0.00438 0.00458
284.01556 0.00603 0.00414 0.00601 0.00667 0.00769
284.02511 0.00460 0.00604 0.00584 0.00566 0.00731
284.03467 0.00687 0.00539 0.00498 0.00626 0.00374
284.04423 0.00355 0.00291 0.00541 0.00439 0.00458
284.05375 0.00563 0.00581 0.00540 0.00543 0.00291
284.06331 0.00479 0.00415 0.00582 0.00564 0.00625
284.07286 0.00381 0.00483 0.00627 0.00547 0.00299
284.08238 0.00227 0.00555 0.00349 0.00496 0.00535
284.09195 0.00435 0.00454 0.00433 0.00477 0.00455
284.10150 0.00569 0.00484 0.00959 0.00778 0.00713
284.11102 0.00542 0.00560 0.00519 0.00564 0.00834
284.12058 0.00281 0.00280 0.00239 0.00303 0.00385
284.13010 0.00509 0.00631 0.00487 0.00531 0.00758
284.13965 0.00734 0.00627 0.00439 0.00631 0.00524
284.14922 0.00562 0.00725 0.00311 0.00501 0.00458
284.15874 0.00583 0.00397 0.00520 0.00380 0.00276
284.16829 0.00521 0.00499 0.00214 0.00501 0.00521
284.17785 0.00593 0.00224 0.00652 0.00390 0.00491
284.18737 0.00589 0.00751 0.00546 0.00425 0.00403
284.19694 0.00815 0.00689 0.00834 0.00652 0.00774
284.20646 0.00166 0.00309 0.00372 0.00145 0.00186
284.21601 0.00421 0.00562 0.00625 0.00484 0.00586
284.22554 0.00297 0.00255 0.00297 0.00401 0.00359
284.23509 0.00408 0.00223 0.00732 0.00511 0.00408
284.24464 0.00557 0.00675 0.00435 0.00457 0.00334
284.25418 0.00541 0.00457 0.00092 0.00399 0.00275
284.26373 0.00469 0.00507 0.00386 0.00614 0.00407
284.27325 0.00540 0.00375 0.00417 0.00541 0.00275
284.28281 0.00367 0.00528 0.00326 0.00552 0.00367
284.29233 0.00256 0.00234 0.00499 0.00420 0.00296
284.30188 0.00589 0.00505 0.00486 0.00570 0.00609
284.31142 0.00465 0.00564 0.00505 0.00507 0.00465
284.32097 0.00489 0.00447 0.00427 0.00449 0.00367
284.33049 0.00547 0.00303 0.00081 0.00407 0.00081
284.34005 0.00493 0.00368 0.00491 0.00453 0.00410
284.34957 0.00539 0.00577 0.00618 0.00519 0.00295
284.35913 0.00277 0.00337 0.00481 0.00585 0.00215
284.36866 0.00500 0.00336 0.00601 0.00666 0.00603
284.37821 0.00511 0.00529 0.00326 0.00553 0.00429
284.38774 0.00481 0.00480 0.00358 0.00565 0.00420
284.39729 0.00521 0.00438 0.00398 0.00338 0.00603
284.40681 0.00256 0.00459 0.00521 0.00709 0.00645
284.41638 0.00627 0.00195 0.00462 0.00444 0.00730
284.42590 0.00462 0.00092 0.00624 0.00463 0.00236
284.43545 0.00654 0.00570 0.00550 0.00308 0.00388
284.44498 0.00387 0.00325 0.00427 0.00347 0.00326
284.45453 0.00485 0.00483 0.00625 0.00608 0.00606
284.46405 0.00567 0.00625 0.00605 0.00628 0.00445
284.47362 0.00560 0.00557 0.00376 0.00643 0.00661
284.48314 0.00589 0.00405 0.00548 0.00652 0.00650
284.49266 0.00649 0.00364 0.00365 0.00387 0.00467
284.50222 0.00479 0.00477 0.00682 0.00522 0.00602
284.51174 0.00475 0.00679 0.00618 0.00435 0.00496
284.52129 0.00372 0.00371 0.00350 0.00415 0.00331
284.53083 0.00062 0.00248 0.00435 0.00417 0.00311
284.54035 0.00319 0.00051 0.00134 0.00444 0.00175
284.54990 0.00633 0.00445 0.00508 0.00531 0.00342
284.55943 0.00384 0.00404 0.00674 0.00240 0.00551
284.56898 0.00176 0.00424 0.00549 0.00719 0.00716
284.57851 0.00599 0.00699 0.00700 0.00622 0.00826
284.58804 0.00516 0.00493 0.00412 0.00518 0.00289
284.59759 0.00249 0.00538 0.00435 0.00374 0.00519
284.60712 0.00477 0.00578 0.00434 0.00477 0.00497
284.61664 0.00311 0.00434 0.00620 0.00354 0.00518
284.62619 0.00177 0.00114 0.00300 0.00302 0.00239
284.63572 0.00206 0.00370 0.00287 0.00559 0.00288
284.64525 0.00707 0.00194 0.00398 0.00565 0.00481
284.65480 0.00173 0.00192 0.00375 0.00336 0.00213
284.66433 0.00396 0.00495 0.00557 0.00377 0.00396
284.67385 0.00487 0.00404 0.00647 0.00406 0.00365
284.68340 0.00449 0.00508 0.00387 0.00286 0.00245
284.69293 0.00587 0.00766 0.00626 0.00548 0.00830
284.70246 0.00530 0.00447 0.00346 0.00368 0.00550
284.71198 0.00348 0.00122 0.00143 0.00205 0.00408
284.72154 0.00449 0.00203 0.00529 0.00512 0.00326
284.73106 0.00450 0.00264 0.00448 0.00328 0.00326
284.74059 0.00388 0.00529 0.00591 0.00451 0.00163
284.75014 0.00184 0.00122 0.00285 0.00471 0.00368
284.75967 0.00215 0.00071 0.00133 0.00175 0.00154
284.76920 0.00349 0.00246 0.00061 0.00454 0.00308
284.77872 0.00663 0.00578 0.00701 0.00399 0.00438
284.78827 0.00389 0.00429 0.00572 0.00493 0.00389
284.79780 0.00436 0.00293 0.00334 0.00457 0.00618
284.80732 0.00413 0.00251 0.00432 0.00212 0.00212
284.81685 0.00242 0.00501 0.00562 0.00263 0.00504
284.82638 0.00425 0.00423 0.00121 0.00345 0.00385
284.83593 0.00517 0.00333 0.00091 0.00356 0.00376
284.84545 0.00132 0.00091 0.00415 0.00356 0.00233
284.85498 0.00568 0.00464 0.00546 0.00386 0.00486
284.86450 0.00311 0.00470 0.00290 0.00171 0.00070
284.87402 0.00288 0.00346 0.00228 0.00289 0.00268
284.88359 0.00444 0.00522 0.00502 0.00228 0.00326
284.89311 0.00345 0.00265 0.00187 0.00188 0.00561
284.90263 0.00158 0.00295 0.00217 0.00278 0.00198
284.91216 0.00363 0.00342 0.00323 0.00266 0.00422
284.92168 0.00437 0.00336 0.00455 0.00577 0.00318
284.93124 0.00394 0.00353 0.00334 0.00316 0.00295
284.94077 0.00556 0.00138 0.00356 0.00717 0.00437
284.95029 0.00524 0.00483 0.00326 0.00427 0.00465
284.95982 0.00555 0.00316 0.00217 0.00497 0.00317
284.96934 0.00397 0.00356 0.00277 0.00497 0.00278
284.97886 0.00409 0.00507 0.00528 0.00450 0.00269
284.98839 0.00338 0.00515 0.00417 0.00259 0.00259
284.99792 0.00290 0.00348 0.00389 0.00450 0.00349
285.00747 0.00140 0.00339 0.00160 0.00060 0.00140
285.01700 0.00484 0.00461 0.00522 0.00626 0.00463
285.02652 0.00525 0.00462 0.00403 0.00527 0.00303
285.03604 0.00231 0.00170 0.00511 0.00373 0.00251
285.04557 0.00171 0.00452 0.00211 0.00334 0.00272
285.05509 0.00272 0.00392 0.00191 0.00495 0.00534
285.06462 0.00271 0.00390 0.00370 0.00392 0.00191
285.07415 0.00311 0.00050 0.00250 0.00352 0.00231
285.08367 0.00381 0.00579 0.00200 0.00241 0.00241
285.09319 0.00288 0.00227 0.00366 0.00388 0.00307
285.10272 0.00218 0.00336 0.00218 0.00398 0.00377
285.11224 0.00228 0.00207 0.00168 0.00109 0.00208
285.12181 0.00483 0.00285 0.00246 0.00247 0.00424
285.13133 0.00417 0.00375 0.00376 0.00318 0.00536
285.14085 0.00327 0.00424 0.00286 0.00486 0.00505
285.15038 0.00279 0.00317 0.00576 0.00299 0.00179
285.15990 0.00247 0.00148 0.00247 0.00169 0.00228
285.16942 0.00429 0.00308 0.00407 0.00290 0.00070
285.17895 0.00357 0.00198 0.00218 0.00378 0.00079
285.18848 0.00478 0.00496 0.00318 0.00320 0.00259
285.19800 0.00319 0.00377 0.00239 0.00260 0.00080
285.20753 0.00160 0.00080 0.00299 0.00241 0.00220
285.21705 0.00670 0.00368 0.00449 0.00632 0.00350
285.22657 0.00507 0.00326 0.00248 0.00349 0.00427
285.23610 0.00331 0.00170 0.00250 0.00271 0.00150
285.24562 0.00208 0.00326 0.00247 0.00328 0.00288
285.25515 0.00499 0.00338 0.00458 0.00260 0.00399
285.26465 0.00650 0.00489 0.00729 0.00693 0.00470
285.27417 0.00120 0.00240 0.00200 0.00221 0.00321
285.28370 0.00700 0.00219 0.00558 0.00321 0.00320
285.29322 0.00311 0.00270 0.00410 0.00352 0.00411
285.30274 0.00618 0.00496 0.00675 0.00500 0.00558
285.31227 0.00388 0.00347 0.00426 0.00170 0.00050
285.32180 0.00510 0.00189 0.00528 0.00391 0.00410
285.33132 0.00345 0.00304 0.00206 0.00365 0.00325
285.34085 0.00358 0.00198 0.00357 0.00159 0.00079
285.35037 0.00349 0.00109 0.00368 0.00430 0.00289
285.35989 0.00517 0.00297 0.00377 0.00479 0.00318
285.36942 0.00010 0.00129 0.00168 0.00329 0.00288
285.37895 0.00210 0.00427 0.00527 0.00370 0.00369
285.38844 0.00308 0.00405 0.00347 0.00507 0.00228
285.39797 0.00459 0.00159 0.00298 0.00400 0.00379
285.40749 -0.00030 0.00010 0.00030 0.00130 -0.00109
285.41701 0.00387 0.00603 0.00386 0.00547 0.00367
285.42654 0.00249 0.00248 0.00327 0.00369 0.00567
285.43606 0.00536 0.00376 0.00337 0.00438 0.00020
285.44559 0.00423 0.00500 0.00638 0.00346 0.00266
285.45509 0.00337 0.00237 0.00178 0.00298 0.00297
285.46461 0.00335 0.00314 0.00354 0.00040 0.00355
285.47414 0.00138 0.00196 0.00020 0.00079 0.00079
285.48366 0.00167 0.00069 0.00147 0.00188 0.00128
285.49318 0.00237 0.00412 0.00393 0.00336 0.00355
285.50271 0.00039 0.00234 0.00527 0.00413 0.00274
285.51220 0.00039 0.00039 0.00314 0.00316 0.00098
285.52173 0.00224 0.00204 0.00301 0.00322 0.00263
285.53126 0.00330 0.00154 0.00058 0.00253 0.00465
285.54078 0.00146 0.00010 0.00438 0.00069 0.00498
285.55030 0.00262 0.00377 0.00300 0.00204 0.00223
285.55980 0.00359 0.00416 0.00532 0.00555 0.00359
285.56932 0.00329 0.00039 0.00097 0.00000 0.00194
285.57884 0.00204 0.00280 0.00242 0.00127 0.00281
285.58838 0.00252 -0.00019 0.00522 0.00175 0.00407
285.59787 0.00310 0.00309 0.00464 0.00253 0.00484
285.60739 0.00311 0.00367 -0.00039 0.00331 0.00213
285.61692 0.00589 0.00298 0.00125 0.00416 0.00415
285.62644 0.00331 0.00368 0.00310 0.00234 0.00330
285.63594 0.00319 0.00260 0.00125 0.00320 0.00532
285.64546 0.00194 0.00328 0.00406 0.00213 0.00135
285.65499 0.00311 0.00349 0.00272 0.00312 0.00408
285.66452 0.00332 0.00136 0.00526 0.00235 0.00098
285.67401 0.00217 0.00471 0.00216 0.00059 0.00236
285.68353 0.00303 0.00127 0.00088 0.00245 0.00225
285.69306 0.00246 0.00049 0.00480 0.00286 0.00108
285.70255 0.00146 0.00204 0.00321 0.00343 0.00088
285.71207 0.00293 0.00117 0.00195 0.00548 0.00273
285.72160 0.00407 0.00425 0.00387 0.00447 0.00194
285.73110 0.00477 0.00223 0.00282 0.00186 0.00204
285.74062 0.00223 0.00184 0.00281 0.00419 0.00301
285.75015 0.00348 0.00154 0.00173 0.00310 0.00309
285.75964 0.00438 0.00087 0.00398 0.00361 0.00146
285.76916 0.00280 0.00471 0.00260 0.00261 0.00357
285.77869 0.00291 0.00348 0.00542 0.00253 0.00601
285.78818 0.00427 0.00483 0.00271 0.00330 0.00407
285.79771 0.00418 0.00029 0.00378 0.00205 0.00204
285.80724 -0.00097 0.00328 0.00502 0.00369 0.00368
285.81673 0.00272 0.00097 0.00155 0.00429 0.00311
285.82626 0.00271 0.00058 0.00154 0.00174 0.00309
285.83578 0.00331 0.00097 0.00408 0.00313 0.00136
285.84527 0.00245 0.00380 0.00341 0.00284 0.00166
285.85480 0.00205 0.00283 0.00185 0.00225 0.00303
285.86429 0.00156 0.00292 0.00272 0.00352 0.00351
285.87382 0.00447 0.00078 0.00252 0.00312 0.00233
285.88335 0.00331 0.00097 0.00272 0.00235 0.00214
285.89284 0.00333 0.00195 0.00254 0.00020 0.00294
285.90236 0.00263 0.00379 0.00068 0.00244 0.00380
285.91186 0.00198 0.00315 0.00177 0.00416 0.00118
285.92138 0.00217 -0.00020 0.00314 0.00138 0.00157
285.93087 0.00329 0.00446 0.00407 0.00410 0.00349
285.94040 0.00248 0.00247 0.00129 0.00269 0.00288
285.94993 0.00348 0.00367 0.00328 0.00589 0.00428
285.95943 0.00059 0.00237 0.00020 0.00119 0.00178
285.96895 0.00378 0.00257 0.00238 0.00299 0.00417
285.97844 0.00306 0.00285 0.00207 0.00149 0.00049
285.98797 0.00356 0.00374 0.00355 0.00099 0.00316
285.99746 0.00348 0.00208 0.00248 0.00289 0.00328
286.00698 0.00434 0.00039 0.00158 0.00158 0.00356
286.01648 0.00268 -0.00050 0.00149 0.00129 0.00229
286.02601 0.00367 0.00207 0.00148 0.00228 0.00050
286.03550 0.00318 0.00474 0.00099 0.00557 0.00238
286.04503 0.00039 0.00039 0.00020 0.00256 0.00197
286.05452 0.00176 0.00311 0.00253 0.00215 0.00215
286.06404 0.00187 -0.00029 0.00128 0.00247 0.00286
286.07354 0.00157 0.00274 -0.00039 0.00059 0.00098
286.08306 0.00295 0.00137 0.00157 0.00415 0.00334
286.09255 0.00059 0.00175 0.00117 0.00177 0.00039
286.10205 0.00416 0.00511 0.00434 0.00611 0.00416
286.11158 0.00429 0.00311 0.00136 0.00254 0.00234
286.12107 0.00272 0.00116 0.00058 0.00195 0.00058
286.13060 0.00215 0.00097 0.00136 0.00000 0.00214
286.14009 0.00214 0.00136 0.00310 0.00254 0.00194
286.14962 0.00128 0.00049 0.00285 0.00188 0.00207
286.15911 0.00167 0.00049 0.00069 0.00128 0.00069
286.16860 0.00040 0.00118 0.00295 0.00357 0.00178
286.17813 0.00284 0.00264 0.00010 0.00403 0.00166
286.18763 0.00197 -0.00079 0.00157 0.00356 0.00118
286.19715 0.00256 0.00333 0.00137 0.00099 0.00334
286.20665 0.00293 0.00194 0.00253 0.00196 0.00234
286.21614 0.00223 0.00299 0.00029 0.00165 -0.00087
286.22566 0.00271 0.00328 0.00096 0.00524 0.00348
286.23516 0.00203 0.00163 0.00241 0.00261 0.00357
286.24468 0.00359 0.00222 0.00358 0.00633 0.00146
286.25417 0.00309 0.00135 0.00231 0.00271 0.00116
286.26367 0.00097 0.00213 0.00097 0.00486 0.00116
286.27320 0.00154 0.00211 0.00442 0.00271 0.00193
286.28269 0.00261 0.00164 0.00356 0.00262 0.00261
286.29219 -0.00125 0.00144 0.00105 0.00106 0.00125
286.30171 0.00136 0.00425 -0.00019 0.00155 0.00329
286.31121 0.00193 0.00597 0.00328 0.00310 0.00406
286.32070 0.00166 0.00068 0.00263 0.00147 0.00302
286.33022 0.00087 0.00261 0.00107 0.00556 0.00379
286.33972 0.00263 0.00243 0.00204 0.00166 0.00185
286.34921 0.00330 0.00483 0.00542 0.00175 0.00485
286.35874 0.00126 0.00087 0.00203 0.00107 0.00165
286.36824 0.00290 0.00289 0.00096 0.00388 0.00503
286.37773 0.00291 0.00193 0.00484 -0.00019 0.00252
286.38722 0.00127 -0.00049 0.00262 0.00186 -0.00107
286.39675 0.00252 0.00193 0.00077 0.00175 0.00116
286.40624 0.00291 0.00155 0.00252 0.00311 0.00426
286.41573 -0.00010 0.00164 0.00126 0.00165 0.00359
286.42523 0.00193 0.00115 0.00385 0.00465 0.00289
286.43476 -0.00125 0.00105 0.00354 0.00471 0.00335
286.44425 0.00029 0.00125 0.00183 0.00145 0.00280
286.45375 0.00174 0.00000 0.00212 -0.00019 0.00058
286.46324 0.00348 0.00463 0.00309 0.00427 0.00406
286.47277 0.00214 -0.00039 0.00214 0.00371 0.00253
286.48226 0.00194 0.00289 0.00328 0.00349 0.00348
286.49175 0.00242 0.00087 0.00280 0.00068 0.00358
286.50125 0.00010 -0.00086 0.00010 0.00414 -0.00048
286.51077 0.00048 0.00221 -0.00145 0.00242 0.00299
286.52026 -0.00105 0.00029 0.00010 -0.00067 0.00048
286.52977 0.00318 0.00106 0.00202 0.00319 0.00106
286.53926 0.00145 0.00106 0.00299 0.00223 0.00222
286.54875 0.00117 0.00272 0.00136 0.00078 0.00195
286.55825 0.00029 0.00107 0.00244 0.00265 0.00010
286.56777 0.00020 0.00137 0.00059 0.00000 0.00000
286.57726 0.00263 -0.00010 0.00010 0.00049 0.00088
286.58676 0.00350 0.00116 0.00116 0.00253 0.00058
286.59625 0.00244 0.00398 0.00457 0.00342 0.00185
286.60574 0.00251 0.00231 0.00289 0.00291 0.00251
286.61524 0.00427 0.00368 -0.00039 0.00351 0.00175
286.62477 0.00302 0.00185 0.00068 0.00088 0.00068
286.63427 0.00029 0.00338 0.00203 0.00204 0.00320
286.64376 0.00203 0.00260 0.00203 0.00126 0.00222
286.65325 0.00165 0.00203 0.00106 -0.00029 0.00068
286.66275 0.00000 -0.00077 0.00154 0.00136 -0.00058
286.67224 0.00203 0.00029 0.00164 0.00164 0.00087
286.68173 0.00010 -0.00184 0.00145 0.00360 0.00029
286.69123 0.00312 -0.00116 0.00039 0.00176 0.00175
286.70072 0.00059 -0.00059 0.00098 0.00395 0.00079
286.71025 0.00049 0.00204 0.00243 0.00049 0.00010
286.71975 0.00020 0.00000 0.00098 0.00000 0.00059
286.72924 0.00127 0.00341 -0.00107 0.00324 0.00323
286.73873 0.00224 0.00262 0.00107 0.00127 0.00107
286.74823 0.00465 0.00135 0.00193 0.00058 0.00097
286.75772 0.00368 0.00231 0.00116 0.00330 0.00155
286.76721 0.00049 0.00126 0.00068 0.00107 0.00107
286.77671 0.00078 0.00136 0.00019 0.00000 0.00058
286.78620 0.00059 0.00234 0.00117 0.00157 0.00098
286.79570 0.00263 0.00107 0.00340 0.00127 0.00029
286.80520 0.00126 0.00164 0.00145 0.00107 0.00048
286.81469 0.00174 0.00212 0.00193 -0.00019 0.00077
286.82419 0.00355 0.00048 0.00201 0.00221 0.00201
286.83368 0.00048 0.00256 0.00275 0.00219 0.00314
286.84317 0.00154 0.00057 0.00345 0.00251 0.00192
286.85267 0.00173 0.00038 0.00211 0.00231 0.00192
286.86216 0.00057 -0.00019 0.00076 0.00077 -0.00172
286.87165 0.00278 0.00048 -0.00105 -0.00029 0.00240
286.88115 0.00029 -0.00086 0.00067 0.00202 0.00010
286.89064 -0.00268 -0.00133 -0.00019 0.00250 0.00038
286.90013 0.00076 0.00095 0.00019 0.00153 0.00190
286.90964 -0.00019 0.00115 -0.00019 0.00212 0.00096
286.91913 0.00412 0.00277 0.00105 0.00221 0.00029
286.92862 0.00029 0.00220 0.00316 0.00241 -0.00029
286.93812 0.00192 0.00115 0.00229 0.00269 0.00268
286.94761 0.00058 0.00000 -0.00174 0.00097 0.00116
286.95711 0.00038 0.00172 0.00096 -0.00135 -0.00134
286.96660 0.00029 -0.00068 0.00145 0.00165 0.00010
286.97606 0.00029 0.00317 0.00010 0.00203 0.00145
286.98556 0.00339 -0.00106 0.00145 0.00223 0.00126
286.99505 0.00068 0.00184 0.00049 0.00127 0.00088
287.00455 0.00116 0.00232 0.00271 0.00039 -0.00058
287.01405 -0.00058 0.00000 0.00096 0.00136 -0.00097
287.02354 0.00193 0.00096 0.00135 0.00058 0.00231
287.03303 0.00240 0.00105 0.00029 0.00260 0.00355
287.04253 -0.00010 0.00086 0.00452 -0.00145 0.00029
287.05202 0.00010 0.00010 0.00105 0.00048 0.00010
287.06148 0.00231 0.00307 0.00327 0.00290 0.00289
287.07098 0.00232 0.00347 0.00482 0.00388 0.00193
287.08047 0.00329 0.00000 0.00347 0.00310 0.00270
287.08996 0.00214 0.00310 0.00194 0.00370 0.00466
287.09946 0.00078 0.00174 -0.00019 0.00175 0.00194
287.10896 0.00225 0.00380 0.00322 0.00324 -0.00029
287.11846 0.00478 0.00379 0.00282 0.00460 0.00185
287.12792 0.00127 0.00166 0.00049 -0.00029 0.00186
287.13741 0.00275 0.00196 0.00471 0.00276 0.00256
287.14691 0.00157 0.00020 0.00392 0.00197 0.00197
287.15640 0.00158 0.00216 0.00354 0.00158 0.00374
287.16589 0.00049 0.00049 0.00226 0.00109 0.00227
287.17536 0.00305 -0.00128 0.00147 0.00049 0.00207
287.18485 0.00434 0.00196 0.00295 0.00375 0.00138
287.19434 0.00098 0.00332 -0.00078 0.00197 0.00118
287.20384 0.00079 -0.00020 0.00356 0.00159 0.00357
287.21333 0.00237 0.00138 0.00236 0.00317 0.00158
287.22280 0.00255 0.00117 -0.00176 0.00020 0.00216
287.23230 0.00108 0.00264 -0.00029 0.00148 0.00128
287.24179 0.00165 0.00242 0.00281 0.00185 0.00048
287.25128 0.00097 0.00116 -0.00077 -0.00019 -0.00039
287.26075 0.00157 0.00331 -0.00020 0.00236 0.00215
287.27024 -0.00088 -0.00068 -0.00126 0.00010 0.00010
287.27974 0.00225 0.00010 0.00282 0.00245 0.00224
287.28923 0.00449 0.00311 0.00214 0.00137 0.00351
287.29869 0.00156 -0.00039 0.00098 0.00059 0.00059
287.30819 -0.00138 0.00039 0.00157 0.00236 0.00197
287.31768 -0.00068 0.00010 0.00263 0.00167 -0.00205
287.32714 0.00371 0.00233 0.00234 0.00470 0.00156
287.33665 0.00355 0.00196 0.00000 0.00119 0.00059
287.34614 0.00000 0.00078 -0.00078 -0.00020 0.00020
287.35560 0.00227 0.00147 0.00108 0.00504 -0.00010
287.36510 -0.00030 -0.00010 -0.00069 -0.00109 0.00010
287.37459 0.00186 0.00127 -0.00010 0.00206 0.00127
287.38408 0.00304 0.00068 0.00068 0.00187 0.00049
287.39355 0.00321 0.00261 0.00281 0.00166 0.00223
287.40304 0.00068 -0.00010 0.00029 -0.00048 0.00087
287.41250 0.00262 0.00068 0.00281 0.00243 0.00301
287.42200 0.00321 0.00145 -0.00029 0.00146 -0.00010
287.43149 0.00107 0.00165 0.00223 0.00185 0.00146
287.44096 -0.00107 0.00106 -0.00010 0.00068 0.00049
287.45045 0.00337 0.00278 0.00029 0.00164 0.00087
287.45995 0.00259 0.00182 0.00297 0.00087 0.00010
287.46942 0.00536 0.00400 0.00191 0.00307 0.00172
287.47891 0.00477 0.00228 0.00152 0.00459 0.00038
287.48837 0.00277 0.00314 0.00315 -0.00144 -0.00067
287.49787 0.00143 0.00256 0.00028 0.00277 0.00371
287.50736 0.00163 0.00487 0.00258 0.00144 0.00086
287.51682 0.00019 0.00057 0.00057 0.00153 -0.00095
287.52632 0.00154 0.00325 0.00211 -0.00019 0.00077
287.53578 0.00143 0.00124 0.00105 0.00430 0.00048
287.54527 0.00162 0.00104 0.00257 0.00354 0.00010
287.55477 -0.00154 -0.00058 -0.00019 0.00251 0.00058
287.56423 0.00490 0.00163 0.00545 0.00375 0.00297
287.57372 -0.00038 0.00058 -0.00058 0.00347 0.00000
287.58320 0.00261 0.00183 0.00337 0.00203 0.00164
287.59269 0.00301 0.00010 0.00223 0.00185 0.00184
287.60216 0.00010 0.00183 0.00010 0.00224 0.00126
287.61165 0.00156 0.00058 0.00097 0.00371 0.00117
287.62111 0.00515 0.00280 0.00087 0.00380 0.00184
287.63061 -0.00019 -0.00019 0.00077 0.00117 0.00039
287.64007 0.00271 0.00193 0.00251 0.00117 -0.00019
287.64956 0.00425 0.00154 0.00116 0.00252 0.00309
287.65903 0.00107 0.00125 0.00145 0.00204 -0.00010
287.66852 0.00281 -0.00010 0.00106 0.00184 0.00164
287.67798 -0.00058 0.00249 0.00153 0.00193 0.00096
287.68748 0.00231 0.00077 0.00077 0.00116 0.00173
287.69694 0.00192 0.00229 0.00134 0.00211 0.00153
287.70643 -0.00106 0.00105 0.00163 0.00068 0.00202
287.71591 0.00086 0.00351 0.00219 0.00239 0.00162
287.72540 0.00173 0.00192 0.00249 0.00135 0.00269
287.73486 0.00289 0.00019 0.00269 0.00270 0.00192
287.74436 0.00318 0.00278 0.00048 0.00376 0.00260
287.75382 0.00211 0.00153 0.00057 0.00135 0.00154
287.76329 0.00327 0.00096 0.00211 0.00386 0.00250
287.77278 0.00097 0.00193 0.00251 0.00252 0.00155
287.78224 -0.00029 0.00106 -0.00029 0.00107 0.00068
287.79174 0.00195 0.00252 0.00058 0.00195 0.00233
287.80120 0.00166 0.00068 0.00107 0.00029 0.00088
287.81069 -0.00049 0.00341 0.00205 0.00363 0.00010
287.82016 0.00543 0.00367 0.00232 0.00117 0.00407
287.82962 0.00361 0.00165 0.00087 0.00186 0.00185
287.83911 0.00254 0.00097 0.00136 0.00235 0.00332
287.84858 0.00215 -0.00039 0.00000 0.00313 0.00039
287.85805 -0.00146 -0.00049 0.00088 0.00068 0.00146
287.86754 0.00235 0.00175 0.00175 0.00196 0.00254
287.87701 0.00116 0.00039 0.00154 0.00272 -0.00019
287.88650 0.00068 0.00243 0.00088 0.00147 0.00166
287.89596 -0.00116 -0.00193 0.00058 -0.00078 -0.00058
287.90543 0.00156 0.00290 0.00311 0.00195 0.00194
287.91492 0.00019 0.00136 0.00000 0.00020 0.00019
287.92439 0.00088 0.00185 0.00049 0.00265 0.00186
287.93385 -0.00029 -0.00029 -0.00146 -0.00128 -0.00108
287.94334 0.00039 0.00156 0.00078 0.00158 0.00118
287.95281 0.00165 0.00320 0.00145 0.00088 0.00185
287.96227 0.00245 0.00107 0.00088 0.00226 0.00088
287.97173 0.00292 0.00136 0.00155 0.00176 0.00136
287.98123 0.00136 0.00000 0.00019 0.00137 -0.00136
287.99069 0.00049 -0.00049 -0.00029 0.00226 -0.00010
288.00015 0.00146 0.00203 0.00029 0.00166 0.00184
288.00966 0.00097 0.00019 0.00290 0.00117 0.00272
288.01912 0.00058 -0.00097 0.00155 0.00078 0.00000
288.02858 -0.00097 0.00154 -0.00135 0.00272 0.00135
288.03805 0.00019 0.00019 -0.00134 -0.00135 0.00154
288.04754 0.00337 0.00105 0.00086 0.00183 0.00125
288.05701 0.00280 0.00375 0.00125 0.00320 0.00164
288.06647 -0.00195 0.00019 0.00000 0.00039 0.00195
288.07593 0.00204 0.00261 0.00242 0.00380 -0.00010
288.08543 0.00222 0.00202 0.00279 0.00048 0.00125
288.09489 -0.00048 0.00048 0.00029 0.00010 0.00087
288.10435 0.00029 -0.00221 -0.00029 0.00106 0.00125
288.11382 0.00134 0.00134 -0.00115 -0.00154 0.00134
288.12331 0.00125 -0.00048 0.00048 0.00067 0.00374
288.13277 0.00365 0.00172 0.00077 0.00231 0.00211
288.14224 0.00248 0.00076 0.00114 0.00230 0.00286
288.15170 0.00124 0.00180 0.00294 0.00315 0.00333
288.16116 0.00057 -0.00057 -0.00113 0.00209 0.00019
288.17067 0.00180 0.00368 0.00293 0.00238 0.00161
288.18013 0.00105 -0.00085 0.00048 -0.00010 0.00105
288.18959 0.00350 0.00066 0.00123 0.00180 -0.00028
288.19906 0.00105 -0.00047 -0.00009 0.00258 0.00086
288.20852 0.00009 0.00047 -0.00028 -0.00086 -0.00047
288.21799 -0.00038 -0.00133 -0.00285 0.00134 0.00000
288.22745 0.00047 0.00123 0.00161 0.00086 0.00332
288.23694 0.00066 0.00047 -0.00009 -0.00010 0.00199
288.24641 0.00029 0.00124 0.00086 0.00278 0.00144
288.25587 0.00172 0.00172 0.00134 0.00250 0.00230
288.26533 0.00086 0.00313 0.00256 0.00124 0.00162
288.27480 0.00095 0.00133 0.00171 -0.00153 -0.00019
288.28426 0.00189 -0.00113 -0.00038 0.00038 0.00000
288.29372 -0.00038 0.00133 0.00019 0.00019 -0.00171
288.30319 0.00095 -0.00057 -0.00038 0.00000 -0.00019
288.31265 0.00350 0.00047 0.00028 0.00218 0.00255
288.32214 0.00057 0.00415 0.00246 0.00114 0.00189
288.33161 0.00293 0.00122 0.00292 0.00332 0.00142
288.34107 -0.00038 0.00150 -0.00094 0.00246 0.00189
288.35053 -0.00037 -0.00093 -0.00093 -0.00113 -0.00056
288.36001 0.00404 0.00252 0.00047 0.00179 0.00103
288.36947 -0.00123 0.00273 -0.00028 -0.00237 -0.00104
288.37894 0.00274 0.00160 0.00179 0.00199 0.00009
288.38840 0.00199 0.00104 0.00085 0.00009 0.00066
288.39786 0.00219 0.00294 0.00124 0.00143 0.00162
288.40733 -0.00038 0.00190 -0.00228 0.00134 0.00038
288.41679 0.00029 -0.00085 -0.00010 0.00048 0.00162
288.42625 0.00000 0.00151 0.00209 0.00133 0.00361
288.43572 0.00057 0.00152 0.00076 0.00096 -0.00057
288.44518 0.00048 0.00180 0.00257 0.00124 -0.00086
288.45464 -0.00038 -0.00170 -0.00019 0.00228 -0.00019
288.46411 0.00123 0.00103 0.00103 0.00217 0.00047
288.47357 0.00095 0.00038 0.00246 0.00248 0.00076
288.48303 0.00235 0.00365 0.00159 0.00160 0.00235
288.49250 0.00334 0.00029 0.00276 0.00411 0.00124
288.50196 -0.00057 -0.00151 -0.00094 0.00076 -0.00170
288.51143 0.00259 0.00124 0.00067 0.00470 0.00278
288.52089 0.00171 0.00114 0.00304 0.00229 -0.00286
288.53035 -0.00115 0.00114 -0.00038 0.00096 -0.00115
288.53982 0.00219 0.00219 -0.00010 0.00163 0.00219
288.54928 0.00085 -0.00085 0.00066 -0.00029 -0.00009
288.55874 0.00274 -0.00104 0.00142 0.00104 -0.00028
288.56821 0.00257 0.00237 0.00009 0.00220 0.00238
288.57768 0.00236 -0.00047 0.00141 0.00256 -0.00009
288.58714 -0.00171 0.00076 0.00208 0.00057 0.00076
288.59658 0.00237 0.00066 0.00236 -0.00028 0.00047
288.60604 0.00104 0.00009 0.00179 0.00028 0.00028
288.61550 0.00047 0.00047 0.00104 0.00066 -0.00104
288.62497 0.00000 0.00056 0.00094 0.00359 0.00339
288.63443 0.00122 0.00009 0.00028 0.00047 -0.00009
288.64389 0.00347 0.00383 0.00384 0.00179 0.00197
288.65336 0.00206 -0.00149 0.00168 -0.00151 0.00206
288.66282 -0.00141 0.00215 0.00047 -0.00104 -0.00122
288.67229 0.00084 0.00288 0.00121 0.00234 0.00363
288.68172 0.00028 0.00083 -0.00065 0.00140 0.00195
288.69118 0.00111 0.00018 0.00148 0.00390 0.00111
288.70065 0.00028 -0.00102 -0.00102 0.00028 0.00102
288.71011 0.00334 0.00037 -0.00092 0.00298 0.00000
288.71957 0.00187 0.00167 0.00410 0.00168 0.00355
288.72904 0.00000 0.00224 0.00149 0.00113 0.00093
288.73847 0.00160 0.00084 0.00254 0.00161 0.00273
288.74793 -0.00086 0.00237 -0.00066 0.00295 0.00104
288.75740 0.00057 0.00076 0.00019 0.00057 0.00019
288.76686 0.00113 0.00187 0.00150 -0.00113 0.00226
288.77632 0.00056 0.00019 -0.00150 0.00113 0.00056
288.78576 0.00056 0.00000 0.00131 0.00225 0.00112
288.79522 0.00019 0.00130 0.00167 0.00299 0.00037
288.80468 0.00204 0.00370 0.00092 0.00316 0.00111
288.81415 0.00074 0.00184 0.00203 0.00111 0.00240
288.82361 0.00084 -0.00139 0.00046 0.00047 0.00046
288.83305 0.00120 0.00193 -0.00009 0.00139 0.00193
288.84252 -0.00046 0.00286 0.00360 0.00399 0.00324
288.85198 0.00203 -0.00037 0.00258 0.00185 0.00350
288.86145 0.00275 0.00311 0.00201 0.00166 0.00275
288.87088 0.00083 -0.00046 -0.00156 0.00009 -0.00211
288.88034 0.00157 0.00064 -0.00101 0.00065 0.00083
288.88981 0.00128 0.00237 0.00128 0.00350 -0.00073
288.89924 0.00166 0.00018 0.00203 0.00222 0.00277
288.90870 0.00240 0.00184 0.00165 0.00166 -0.00018
288.91817 0.00074 0.00055 0.00276 0.00111 0.00111
288.92763 0.00306 0.00212 -0.00046 0.00176 0.00213
288.93706 0.00055 0.00147 0.00349 0.00055 0.00184
288.94653 0.00027 0.00155 0.00137 0.00138 0.00046
288.95599 0.00341 0.00266 -0.00009 0.00286 0.00414
288.96543 0.00083 0.00064 0.00156 0.00157 -0.00230
288.97489 0.00158 0.00083 0.00176 0.00214 -0.00102
288.98435 0.00119 -0.00027 0.00155 0.00303 0.00082
288.99379 0.00137 0.00009 -0.00064 -0.00101 0.00137
289.00325 0.00120 0.00339 0.00211 0.00231 0.00193
289.01271 0.00219 0.00127 0.00219 0.00092 -0.00091
289.02215 0.00092 0.00018 -0.00146 0.00092 0.00055
289.03161 0.00313 0.00018 0.00275 0.00055 0.00074
289.04107 0.00368 0.00018 0.00202 0.00000 0.00055
289.05051 0.00110 0.00073 0.00237 0.00220 -0.00073
289.05997 0.00147 0.00000 0.00256 0.00037 0.00128
289.06940 -0.00018 0.00000 -0.00146 0.00257 0.00073
289.07887 0.00028 0.00009 -0.00174 0.00359 0.00193
289.08833 0.00238 -0.00036 0.00109 0.00110 0.00329
289.09776 -0.00073 -0.00163 0.00073 0.00310 0.00018
289.10723 0.00055 0.00109 0.00128 0.00000 -0.00164
289.11666 0.00443 0.00257 0.00350 0.00278 0.00387
289.12613 0.00148 0.00055 0.00203 0.00315 0.00129
289.13559 0.00398 -0.00009 0.00102 0.00306 0.00194
289.14502 -0.00139 0.00028 -0.00193 0.00194 0.00046
289.15449 0.00064 0.00266 0.00266 0.00194 0.00083
289.16392 0.00176 0.00101 0.00101 0.00139 0.00065
289.17338 0.00352 0.00111 -0.00037 0.00279 0.00129
289.18282 0.00157 0.00028 0.00064 -0.00120 -0.00175
289.19229 0.00018 0.00110 0.00037 0.00185 0.00074
289.20172 -0.00056 0.00111 -0.00055 -0.00167 0.00074
289.21119 0.00120 0.00028 0.00064 0.00046 0.00083
289.22062 0.00074 -0.00129 0.00203 -0.00241 0.00055
289.23008 0.00204 0.00277 0.00278 0.00242 0.00223
289.23952 0.00065 0.00119 0.00101 0.00009 -0.00083
289.24898 0.00260 0.00092 0.00241 0.00353 0.00204
289.25842 0.00092 0.00184 0.00350 0.00222 0.00258
289.26788 0.00037 -0.00019 0.00074 0.00056 0.00074
289.27731 -0.00018 -0.00037 0.00111 -0.00019 0.00425
289.28678 -0.00140 -0.00084 -0.00047 0.00028 0.00233
289.29621 0.00168 0.00148 0.00019 0.00112 0.00205
289.30567 0.00084 -0.00213 0.00139 -0.00103 -0.00139
289.31511 0.00065 0.00065 0.00269 0.00177 0.00195
289.32457 0.00139 0.00231 0.00194 0.00307 0.00046
289.33400 0.00056 0.00149 -0.00093 -0.00206 -0.00019
289.34347 0.00315 0.00370 0.00352 0.00316 0.00241
289.35290 0.00056 0.00374 0.00224 0.00188 0.00244
289.36233 0.00298 0.00204 0.00093 0.00037 0.00074
289.37180 0.00121 0.00102 0.00158 0.00233 0.00065
289.38123 0.00121 0.00250 0.00139 0.00214 0.00121
289.39069 0.00408 0.00333 0.00407 0.00372 0.00223
289.40013 -0.00074 -0.00055 -0.00110 0.00130 0.00074
289.40959 0.00019 0.00074 -0.00019 0.00261 0.00019
289.41903 -0.00074 -0.00055 0.00055 -0.00037 0.00148
289.42846 0.00250 0.00378 0.00213 0.00344 0.00139
289.43792 0.00065 -0.00046 -0.00101 -0.00028 -0.00046
289.44736 0.00092 0.00202 0.00275 0.00295 0.00184
289.45679 0.00166 -0.00073 -0.00037 0.00018 0.00166
289.46625 0.00120 -0.00009 0.00119 -0.00120 0.00064
289.47569 0.00138 0.00156 0.00046 0.00249 0.00138
289.48512 -0.00065 -0.00120 -0.00009 -0.00009 0.00102
289.49458 -0.00018 -0.00018 0.00129 -0.00018 0.00166
289.50402 0.00223 0.00185 0.00204 0.00056 0.00316
289.51348 0.00121 -0.00065 0.00342 0.00270 0.00120
289.52291 -0.00019 -0.00037 0.00148 0.00019 0.00314
289.53235 0.00244 0.00168 0.00206 0.00207 0.00243
289.54178 0.00204 0.00111 0.00167 0.00242 0.00260
289.55125 -0.00056 -0.00056 -0.00094 -0.00057 -0.00056
289.56068 0.00233 0.00233 -0.00102 0.00215 0.00215
289.57011 0.00131 -0.00205 0.00037 0.00000 -0.00019
289.57958 0.00047 0.00009 0.00327 0.00198 0.00103
289.58901 0.00224 0.00112 0.00019 0.00056 0.00262
289.59844 0.00270 -0.00102 0.00250 0.00215 -0.00046
289.60788 -0.00112 -0.00167 0.00019 0.00056 -0.00074
289.61734 0.00251 0.00287 0.00232 0.00233 0.00102
289.62677 0.00113 -0.00093 0.00037 0.00132 0.00112
289.63621 0.00173 0.00268 0.00058 0.00366 -0.00077
289.64567 0.00367 0.00000 -0.00081 0.00102 -0.00203
