Date and Time:                Mon Jan 30 17:52:32.000 2023
Software Version:             4.31.30023.0
Temperature (C):              -40
Model:                        DU940P_BU2
Data Type:                    Counts
Acquisition Mode:             Single Scan
Trigger Mode:                 Internal
Exposure Time (secs):         100
Readout Mode:                 Full Vertical Binning
Horizontal binning:           1
Extended Dynamic Range:       off
Horizontally flipped:         false
Vertical Shift Speed (usecs): 14.51
Pixel Readout Rate (MHz):     3
Baseline Clamp:               ON
Clock Amplitude:              Normal
Output Amplifier:             High Capacity
Serial Number:                23634
Pre-Amplifier Gain:           1.000000
Spurious Noise Filter Mode:   No Filter
Photon counted:               false
Data Averaging Filter Mode:   No Filter
SR500i:
Serial Number:                
Wavelength (nm):              262.5
Grating Groove Density (l/mm):1199.47
Grating Blaze:                500
Output Flipper Port:          Direct
Accessory Output Port 1:      Off
Accessory Output Port 2:      Off
Accessory Output Port 3:      Off
Accessory Input Port:         On



240.76587	50093
240.7872	48711
240.80855	49320
240.8299	49620
240.85123	49848
240.87257	50015
240.89392	50150
240.91525	50239
240.9366	50312
240.95793	50351
240.97928	50370
241.00063	50331
241.02196	50250
241.0433	50115
241.06464	49890
241.08598	49488
241.10732	48749
241.12866	48081
241.14999	47740
241.17134	47402
241.19267	47222
241.21402	47001
241.23535	46415
241.25668	46370
241.27803	45948
241.29936	45773
241.32071	45839
241.34204	45276
241.36337	45146
241.38472	45079
241.40605	44786
241.42738	44682
241.44873	44541
241.47006	44341
241.49139	43869
241.51274	43913
241.53407	43632
241.5554	43480
241.57674	43308
241.59808	43403
241.61942	42708
241.64075	42535
241.66208	41994
241.68341	41683
241.70476	41450
241.72609	41540
241.74742	41360
241.76875	41180
241.79008	40975
241.81142	40820
241.83275	40438
241.8541	40177
241.87543	39844
241.89676	39955
241.91809	39929
241.93942	39648
241.96075	39316
241.98209	39076
242.00342	39127
242.02475	39179
242.04608	38799
242.06741	38385
242.08875	38270
242.11008	38158
242.13141	37779
242.15274	37592
242.17407	37387
242.1954	37142
242.21674	36511
242.23805	36087
242.25938	35914
242.28072	35638
242.30205	35484
242.32338	35194
242.34471	35200
242.36604	34898
242.38736	34549
242.40869	34266
242.43002	34143
242.45135	33889
242.47269	33865
242.494	33631
242.51534	33670
242.53667	33673
242.55798	33582
242.57932	33376
242.60065	33305
242.62198	33142
242.6433	32696
242.66463	32512
242.68596	32396
242.70728	32169
242.72861	31894
242.74992	31693
242.77126	31514
242.79259	31393
242.8139	31053
242.83524	30911
242.85655	30949
242.87788	30959
242.8992	30756
242.92053	30395
242.94185	30118
242.96318	30092
242.9845	29978
243.00583	30083
243.02715	29921
243.04848	29903
243.06979	29649
243.09113	29440
243.11244	29245
243.13377	28991
243.15509	28762
243.17641	28737
243.19774	28678
243.21906	28457
243.24037	28257
243.2617	27953
243.28302	27812
243.30434	27685
243.32567	27466
243.34698	27288
243.3683	27177
243.38962	26906
243.41095	26632
243.43227	26419
243.45358	26167
243.4749	26027
243.49623	25949
243.51755	25989
243.53886	25695
243.56018	25638
243.5815	25422
243.60283	25362
243.62415	25034
243.64546	24819
243.66678	24658
243.6881	24595
243.70941	24344
243.73073	24181
243.75204	23995
243.77336	23696
243.79468	23710
243.81599	23554
243.83731	23470
243.85863	23356
243.87994	23214
243.90126	23085
243.92258	22917
243.94389	22927
243.96521	22937
243.98653	22851
244.00784	22773
244.02916	22709
244.05048	22576
244.07179	22475
244.09311	22198
244.11443	22019
244.13573	21890
244.15704	21809
244.17836	21728
244.19968	21493
244.22099	21356
244.24231	21310
244.26361	21142
244.28493	21201
244.30624	21161
244.32756	21130
244.34886	21097
244.37018	20938
244.39149	20725
244.4128	20602
244.43411	20544
244.45543	20552
244.47673	20614
244.49805	20605
244.51936	20488
244.54066	20417
244.56198	20395
244.5833	20164
244.6046	19948
244.62592	19913
244.64722	19837
244.66853	19645
244.68983	19491
244.71115	19431
244.73247	19291
244.75377	19101
244.77509	18934
244.79639	18767
244.81769	18666
244.839	18580
244.86031	18510
244.88162	18435
244.90292	18248
244.92424	18253
244.94554	18247
244.96684	18212
244.98816	18169
245.00946	18033
245.03078	17987
245.05208	17930
245.07338	17826
245.0947	17785
245.116	17604
245.1373	17533
245.1586	17412
245.17992	17204
245.20122	17085
245.22252	17064
245.24382	17004
245.26514	16820
245.28644	16779
245.30774	16763
245.32904	16608
245.35034	16504
245.37166	16338
245.39296	16224
245.41426	16223
245.43556	16207
245.45686	16160
245.47816	16196
245.49947	16113
245.52077	15931
245.54208	15768
245.56339	15694
245.58469	15615
245.60599	15528
245.62729	15539
245.64859	15452
245.66989	15294
245.69119	15201
245.71249	15077
245.7338	15176
245.7551	15152
245.77638	15157
245.79768	15032
245.81898	14928
245.84029	14887
245.86159	14829
245.88289	14713
245.90419	14750
245.92549	14806
245.94679	14758
245.96808	14577
245.98938	14519
246.01068	14528
246.03198	14397
246.05328	14414
246.07457	14387
246.09587	14294
246.11717	14198
246.13847	14074
246.15976	13961
246.18106	14012
246.20236	14007
246.22365	13830
246.24495	13726
246.26625	13601
246.28754	13526
246.30884	13471
246.33014	13574
246.35143	13477
246.37273	13434
246.39401	13381
246.41531	13405
246.4366	13335
246.4579	13309
246.4792	13198
246.50049	13115
246.52179	13062
246.54308	13061
246.56438	12938
246.58566	12831
246.60696	12804
246.62825	12714
246.64954	12626
246.67084	12704
246.69212	12675
246.71342	12496
246.73471	12385
246.756	12261
246.7773	12148
246.79858	12098
246.81987	12059
246.84117	12052
246.86246	12035
246.88374	11995
246.90504	11936
246.92633	11959
246.94762	11932
246.9689	11837
246.9902	11826
247.01149	11679
247.03278	11686
247.05406	11586
247.07536	11602
247.09665	11598
247.11794	11548
247.13922	11507
247.16051	11458
247.18179	11403
247.20308	11504
247.22438	11466
247.24567	11458
247.26695	11357
247.28824	11209
247.30952	11242
247.33081	11187
247.3521	11228
247.37338	11173
247.39467	11143
247.41595	11109
247.43724	11022
247.45853	11004
247.47981	10963
247.5011	10915
247.52238	10844
247.54367	10829
247.56496	10729
247.58624	10684
247.60751	10636
247.6288	10613
247.65009	10516
247.67137	10471
247.69266	10485
247.71394	10415
247.73523	10346
247.7565	10199
247.77779	10136
247.79907	10083
247.82036	10033
247.84163	10090
247.86292	9978
247.8842	9987
247.90549	9953
247.92676	9955
247.94804	9949
247.96933	9906
247.9906	9863
248.01189	9695
248.03317	9671
248.05444	9607
248.07573	9553
248.097	9492
248.11829	9446
248.13957	9470
248.16084	9367
248.18213	9259
248.2034	9223
248.22469	9189
248.24596	9089
248.26724	9061
248.28851	9057
248.3098	9125
248.33107	9112
248.35236	9071
248.37363	8958
248.39491	8916
248.41618	8889
248.43745	8912
248.45874	8871
248.48001	8896
248.5013	8788
248.52257	8732
248.54384	8649
248.56512	8586
248.5864	8541
248.60767	8462
248.62894	8572
248.65022	8522
248.67149	8531
248.69276	8415
248.71405	8320
248.73532	8288
248.75659	8251
248.77786	8232
248.79913	8210
248.82042	8240
248.84169	8254
248.86296	8180
248.88423	8149
248.9055	8087
248.92677	7998
248.94804	8042
248.96931	8030
248.9906	7976
249.01187	7942
249.03314	7872
249.05441	7809
249.07568	7806
249.09695	7756
249.11823	7686
249.1395	7664
249.16077	7649
249.18204	7587
249.20331	7551
249.22458	7530
249.24585	7488
249.26711	7452
249.28838	7461
249.30965	7439
249.33092	7483
249.35219	7556
249.37346	7418
249.39473	7399
249.41599	7346
249.43726	7270
249.45853	7191
249.4798	7185
249.50107	7144
249.52232	7132
249.54359	7062
249.56487	7074
249.58614	7084
249.60739	7025
249.62866	6995
249.64993	6961
249.67119	6906
249.69246	6910
249.71373	6859
249.73499	6924
249.75626	6952
249.77753	6973
249.79878	6913
249.82005	6855
249.84131	6865
249.86258	6787
249.88385	6708
249.90511	6740
249.92638	6657
249.94763	6703
249.9689	6686
249.99016	6639
250.01143	6616
250.03268	6549
250.05394	6542
250.07521	6590
250.09647	6563
250.11774	6579
250.13899	6599
250.16026	6498
250.18152	6467
250.20277	6444
250.22404	6517
250.2453	6478
250.26656	6525
250.28783	6560
250.30908	6470
250.33034	6450
250.35159	6449
250.37286	6451
250.39412	6437
250.41537	6338
250.43663	6366
250.4579	6305
250.47916	6279
250.50041	6280
250.52167	6286
250.54292	6262
250.56418	6203
250.58545	6160
250.6067	6118
250.62796	6085
250.64922	6115
250.67047	6118
250.69173	6058
250.71298	6058
250.73424	6045
250.75549	6113
250.77675	6091
250.798	6086
250.81926	6032
250.84052	6015
250.86177	5995
250.88303	5974
250.90428	5921
250.92554	5927
250.94679	5891
250.96805	5853
250.9893	5811
251.01056	5855
251.0318	5852
251.05305	5832
251.07431	5803
251.09557	5757
251.11682	5762
251.13808	6110
251.15932	5643
251.18057	5645
251.20183	5639
251.22308	5633
251.24432	5620
251.26558	5658
251.28683	5665
251.30807	5613
251.32933	5564
251.35059	5591
251.37183	5564
251.39308	5530
251.41434	5514
251.43558	5530
251.45683	5503
251.47809	5507
251.49933	5445
251.52058	5430
251.54182	5446
251.56308	5478
251.58432	5450
251.60558	5426
251.62682	5397
251.64807	5378
251.66931	5333
251.69057	5420
251.71181	5448
251.73306	5368
251.7543	5353
251.77556	5348
251.7968	5376
251.81804	5400
251.83929	5386
251.86053	5348
251.88177	5344
251.90303	5334
251.92427	5316
251.94551	5298
251.96677	5303
251.98801	5292
252.00925	5264
252.03049	5236
252.05174	5223
252.07298	5195
252.09422	5211
252.11546	5281
252.13672	5213
252.15796	5191
252.1792	5134
252.20044	5145
252.22168	5182
252.24292	5161
252.26416	5132
252.28542	5119
252.30666	5098
252.3279	5071
252.34914	5066
252.37038	5102
252.39162	5063
252.41286	5083
252.4341	5051
252.45534	5033
252.47658	5018
252.49782	5035
252.51906	5061
252.5403	4992
252.56154	4963
252.58278	4917
252.60402	4930
252.62524	4878
252.64648	4916
252.66772	4819
252.68896	4819
252.71021	4833
252.73145	4822
252.75269	4830
252.77391	4802
252.79515	4800
252.81639	4729
252.83763	4763
252.85886	4758
252.8801	4782
252.90134	4832
252.92258	4768
252.9438	4733
252.96504	4732
252.98628	4747
253.00751	4769
253.02875	4773
253.04999	4706
253.07121	4702
253.09245	4669
253.11368	4653
253.13492	4657
253.15616	4618
253.17738	4630
253.19862	4626
253.21985	4617
253.24109	4651
253.26231	4653
253.28355	4607
253.30478	4629
253.32602	4603
253.34724	4611
253.36847	4582
253.38971	4565
253.41093	4611
253.43217	4572
253.4534	4563
253.47462	4530
253.49586	4551
253.51709	4506
253.53831	4509
253.55956	4491
253.58078	4514
253.60201	4486
253.62325	4483
253.64447	4457
253.6657	4423
253.68692	4412
253.70816	4445
253.72939	4431
253.75061	4430
253.77184	4408
253.79306	4386
253.8143	4403
253.83553	4421
253.85675	4412
253.87798	4377
253.8992	4410
253.92043	4381
253.94165	4395
253.96288	4350
253.9841	4321
254.00533	4306
254.02655	4318
254.04778	4272
254.069	4264
254.09023	4276
254.11145	4330
254.13268	4288
254.1539	4295
254.17513	4287
254.19635	4279
254.21758	4274
254.2388	4286
254.26003	4241
254.28125	4239
254.30247	4226
254.32368	4250
254.34491	4217
254.36613	4245
254.38736	4207
254.40858	4268
254.42979	4255
254.45102	4274
254.47224	4218
254.49347	4197
254.51468	4188
254.5359	4255
254.55713	4204
254.57834	4246
254.59956	4259
254.62079	4246
254.642	4255
254.66322	4236
254.68445	4267
254.70566	4185
254.72688	4188
254.74809	4230
254.76932	4185
254.79054	4164
254.81175	4168
254.83298	4120
254.85419	4129
254.87541	4122
254.89662	4092
254.91785	4052
254.93906	4045
254.96027	4051
254.98149	4022
255.0027	4057
255.02393	4015
255.04514	4028
255.06635	4050
255.08757	4051
255.10878	4028
255.12999	4027
255.15121	4020
255.17242	4042
255.19363	4012
255.21486	3994
255.23607	3994
255.25728	3981
255.27849	4008
255.29971	3944
255.32092	3946
255.34213	3921
255.36334	3933
255.38455	3897
255.40578	3924
255.42699	3896
255.4482	3897
255.46941	3869
255.49062	3883
255.51183	3921
255.53304	3878
255.55424	3906
255.57545	3908
255.59666	3862
255.61787	3907
255.63908	3864
255.66029	3828
255.6815	3829
255.70271	3817
255.72392	3822
255.74513	3850
255.76634	3813
255.78755	3798
255.80876	3816
255.82997	3807
255.85118	3842
255.87239	3820
255.8936	3837
255.91479	3814
255.936	3808
255.95721	3822
255.97842	3812
255.99963	3797
256.02084	3843
256.04205	3835
256.06323	3839
256.08444	3832
256.10565	3814
256.12686	3817
256.14807	3807
256.16928	3796
256.19046	3809
256.21167	3787
256.23288	3787
256.25409	3758
256.2753	3766
256.29651	3774
256.31769	3719
256.3389	3696
256.36011	3699
256.38132	3718
256.4025	3724
256.42371	3710
256.44492	3702
256.46613	3703
256.4873	3653
256.50851	3700
256.52972	3725
256.55093	3712
256.57211	3717
256.59332	3709
256.61453	3682
256.63571	3687
256.65692	3698
256.67813	3678
256.69931	3686
256.72052	3651
256.74173	3624
256.76291	3594
256.78412	3617
256.80533	3648
256.82651	3616
256.84772	3602
256.8689	3622
256.89011	3603
256.91132	3559
256.9325	3560
256.9537	3567
256.97488	3608
256.99609	3535
257.0173	3608
257.03848	3595
257.05969	3575
257.08087	3556
257.10208	3506
257.12326	3507
257.14447	3524
257.16565	3517
257.18686	3534
257.20804	3537
257.22925	3520
257.25043	3523
257.27164	3532
257.29282	3533
257.31403	3538
257.33521	3515
257.35641	3499
257.37759	3503
257.3988	3512
257.41998	3478
257.44116	3453
257.46237	3502
257.48355	3502
257.50476	3508
257.52594	3488
257.54712	3490
257.56833	3524
257.58951	3530
257.61072	3491
257.6319	3473
257.65308	3458
257.67429	3415
257.69547	3426
257.71664	3477
257.73785	3481
257.75903	3448
257.78021	3443
257.80142	3431
257.8226	3433
257.84378	3393
257.86496	3410
257.88617	3430
257.90735	3411
257.92853	3404
257.94974	3432
257.97092	3444
257.9921	3395
258.01328	3407
258.03448	3398
258.05566	3376
258.07684	3354
258.09802	3370
258.1192	3328
258.14041	3365
258.16159	3363
258.18277	3318
258.20395	3333
258.22513	3340
258.24631	3354
258.26752	3347
258.2887	3354
258.30988	3351
258.33105	3335
258.35223	3333
258.37341	3260
258.39459	3250
258.4158	3251
258.43698	3214
258.45816	3234
258.47934	3275
258.50052	3255
258.5217	3237
258.54288	3203
258.56406	3229
258.58524	3150
258.60641	3202
258.62759	3190
258.64877	3195
258.66995	3226
258.69113	3174
258.71231	3178
258.73349	3212
258.75467	3165
258.77585	3249
258.79703	3185
258.81821	3205
258.83939	3186
258.86057	3182
258.88174	3153
258.90292	3140
258.9241	3135
258.94528	3152
258.96646	3117
258.98764	3170
259.00882	3165
259.03	3150
259.05118	3177
259.07233	3146
259.09351	3139
259.11469	3218
259.13586	3180
259.15704	3177
259.17822	3217
259.1994	3230
259.22058	3186
259.24173	3182
259.26291	3181
259.28409	3173
259.30527	3183
259.32645	3159
259.3476	3134
259.36877	3131
259.38995	3108
259.41113	3115
259.43231	3135
259.45346	3120
259.47464	3148
259.49582	3116
259.517	3141
259.53815	3096
259.55933	3074
259.58051	3091
259.60168	3062
259.62283	3055
259.64401	3084
259.66519	3113
259.68634	3105
259.70752	3081
259.7287	3092
259.74985	3083
259.77103	3023
259.79221	3021
259.81335	3056
259.83453	3027
259.85571	3050
259.87686	3038
259.89804	3013
259.91919	3055
259.94037	3034
259.96155	2976
259.9827	3014
260.00388	3008
260.02502	2993
260.0462	3018
260.06738	2964
260.08853	2985
260.10971	2967
260.13086	2960
260.15204	2990
260.17319	3001
260.19437	3003
260.21552	3019
260.23669	3022
260.25784	2975
260.27902	2977
260.30017	2985
260.32135	2959
260.3425	2981
260.36368	2978
260.38483	2965
260.40601	2992
260.42715	2986
260.4483	3009
260.46948	2983
260.49063	3002
260.51181	2968
260.53296	2930
260.55414	2930
260.57529	2936
260.59644	2940
260.61761	2935
260.63876	2909
260.65991	2918
260.68109	2886
260.70224	2900
260.72339	2880
260.74457	2881
260.76572	2872
260.78687	2863
260.80804	2857
260.82919	2860
260.85034	2852
260.87152	2864
260.89267	2898
260.91382	2883
260.935	2850
260.95615	2835
260.97729	2807
260.99844	2814
261.01962	2845
261.04077	2815
261.06192	2789
261.08307	2770
261.10422	2779
261.1254	2773
261.14655	2804
261.16769	2752
261.18884	2754
261.20999	2726
261.23117	2697
261.25232	2717
261.27347	2739
261.29462	2763
261.31577	2729
261.33691	2752
261.35806	2714
261.37924	2714
261.40039	2666
261.42154	2688
261.44269	2730
261.46384	2690
261.48499	2732
261.50613	2677
261.52728	2668
261.54843	2682
261.56958	2677
261.59073	2681
261.61188	2706
261.63306	2684
261.65421	2695
261.67535	2662
261.6965	2667
261.71765	2648
261.7388	2626
261.75995	2636
261.7811	2653
261.80225	2654
261.82339	2637
261.84451	2632
261.86566	2663
261.88681	2659
261.90796	2660
261.92911	2623
261.95026	2638
261.97141	2610
261.99255	2611
262.0137	2609
262.03485	2602
262.056	2596
262.07715	2550
262.09827	2547
262.11942	2585
262.14056	2582
262.16171	2580
262.18286	2607
262.20401	2567
262.22516	2540
262.24628	2563
262.26743	2567
262.28857	2591
262.30972	2584
262.33087	2570
262.35199	2553
262.37314	2581
262.39429	2550
262.41544	2525
262.43658	2535
262.4577	2541
262.47885	2559
262.5	2542
262.52115	2521
262.54227	2522
262.56342	2552
262.58456	2545
262.60568	2568
262.62683	2558
262.64798	2572
262.6691	2526
262.69025	2484
262.7114	2494
262.73251	2501
262.75366	2540
262.77481	2518
262.79593	2536
262.81708	2475
262.83823	2500
262.85934	2474
262.88049	2468
262.90164	2508
262.92276	2492
262.94391	2491
262.96503	2479
262.98618	2471
263.00729	2446
263.02844	2484
263.04959	2479
263.07071	2489
263.09186	2489
263.11298	2476
263.13412	2493
263.15524	2452
263.17639	2459
263.19751	2485
263.21866	2452
263.23978	2484
263.26093	2448
263.28204	2442
263.30319	2405
263.32431	2462
263.34543	2470
263.36658	2454
263.3877	2441
263.40884	2446
263.42996	2419
263.45111	2424
263.47223	2469
263.49335	2479
263.5145	2449
263.53561	2435
263.55676	2428
263.57788	2411
263.599	2418
263.62015	2430
263.64127	2436
263.66238	2430
263.68353	2412
263.70465	2391
263.72577	2391
263.74692	2397
263.76804	2403
263.78915	2412
263.8103	2403
263.83142	2404
263.85254	2350
263.87366	2336
263.89481	2355
263.91592	2357
263.93704	2385
263.95816	2397
263.97931	2375
264.00043	2375
264.02155	2354
264.04266	2334
264.06378	2335
264.08493	2327
264.10605	2297
264.12717	2289
264.14828	2252
264.1694	2254
264.19055	2260
264.21167	2280
264.23279	2273
264.25391	2295
264.27502	2299
264.29614	2242
264.31726	2284
264.33838	2221
264.3595	2258
264.38065	2264
264.40176	2272
264.42288	2301
264.444	2247
264.46512	2230
264.48624	2254
264.50735	2275
264.52847	2265
264.54959	2296
264.57071	2274
264.59183	2275
264.61295	2205
264.63406	2234
264.65518	2240
264.6763	2251
264.69742	2263
264.71854	2272
264.73965	2242
264.76077	2252
264.78189	2226
264.80301	2229
264.82413	2262
264.84525	2268
264.86636	2264
264.88748	2271
264.90857	2266
264.92969	2275
264.95081	2268
264.97192	2265
264.99304	2266
265.01416	2243
265.03528	2239
265.0564	2228
265.07748	2239
265.0986	2216
265.11972	2244
265.14084	2224
265.16196	2220
265.18307	2220
265.20416	2208
265.22528	2218
265.2464	2219
265.26752	2235
265.2886	2197
265.30972	2211
265.33084	2192
265.35196	2196
265.37308	2201
265.39417	2199
265.41528	2224
265.4364	2232
265.45749	2237
265.47861	2200
265.49973	2202
265.52081	2170
265.54193	2186
265.56305	2203
265.58417	2198
265.60526	2227
265.62637	2200
265.64746	2199
265.66858	2190
265.6897	2183
265.71078	2197
265.7319	2202
265.75302	2200
265.77411	2193
265.79523	2174
265.81631	2187
265.83743	2156
265.85855	2162
265.87964	2171
265.90076	2177
265.92184	2219
265.94296	2167
265.96405	2149
265.98517	2151
266.00626	2162
266.02737	2162
266.04846	2172
266.06958	2181
266.09067	2166
266.11179	2189
266.13287	2151
266.15399	2164
266.17508	2170
266.1962	2185
266.21729	2176
266.2384	2164
266.25949	2158
266.28058	2173
266.3017	2179
266.32278	2161
266.3439	2165
266.36499	2148
266.38608	2185
266.4072	2133
266.42828	2132
266.44937	2171
266.47049	2133
266.49158	2152
266.5127	2167
266.53378	2141
266.55487	2126
266.57596	2186
266.59708	2157
266.61816	2164
266.63925	2158
266.66037	2187
266.68146	2177
266.70255	2160
266.72363	2152
266.74475	2159
266.76584	2176
266.78693	2147
266.80801	2140
266.82913	2132
266.85022	2131
266.87131	2112
266.8924	2135
266.91351	2181
266.9346	2133
266.95569	2159
266.97678	2140
266.99786	2117
267.01895	2146
267.04007	2141
267.06116	2155
267.08224	2161
267.10333	2149
267.12442	2127
267.14551	2123
267.1666	2136
267.18768	2164
267.20877	2161
267.22989	2129
267.25098	2148
267.27206	2143
267.29315	2134
267.31424	2133
267.33533	2126
267.35641	2137
267.3775	2160
267.39859	2127
267.41968	2162
267.44077	2131
267.46185	2120
267.48294	2117
267.50403	2146
267.52512	2166
267.5462	2157
267.56729	2173
267.58838	2157
267.60947	2164
267.63055	2183
267.65164	2168
267.6727	2164
267.69379	2165
267.71487	2174
267.73596	2160
267.75705	2173
267.77814	2144
267.79922	2149
267.82031	2133
267.8414	2153
267.86246	2143
267.88354	2164
267.90463	2178
267.92572	2186
267.94681	2168
267.9679	2167
267.98895	2175
268.01004	2172
268.03113	2181
268.05222	2159
268.0733	2175
268.09436	2156
268.11545	2147
268.13654	2171
268.15762	2165
268.17868	2178
268.19977	2181
268.22086	2158
268.24191	2150
268.263	2161
268.28409	2187
268.30518	2189
268.32623	2203
268.34732	2222
268.36841	2189
268.38947	2185
268.41055	2157
268.43164	2168
268.4527	2159
268.47379	2168
268.49484	2172
268.51593	2183
268.53702	2179
268.55807	2180
268.57916	2181
268.60022	2187
268.62131	2210
268.6424	2199
268.66345	2183
268.68454	2178
268.7056	2202
268.72668	2235
268.74774	2192
268.76883	2194
268.78989	2236
268.81097	2219
268.83203	2224
268.85312	2236
268.87418	2242
268.89526	2239
268.91632	2206
268.93741	2240
268.95847	2232
268.97955	2217
269.00061	2240
269.0217	2249
269.04276	2238
269.06381	2270
269.0849	2263
269.10596	2261
269.12704	2276
269.1481	2267
269.16916	2255
269.19025	2298
269.2113	2300
269.23236	2263
269.25345	2317
269.27451	2343
269.29556	2293
269.31665	2269
269.33771	2315
269.35876	2310
269.37985	2320
269.40091	2295
269.42197	2324
269.44305	2312
269.46411	2297
269.48517	2352
269.50623	2336
269.52731	2340
269.54837	2345
269.56943	2329
269.59048	2326
269.61157	2361
269.63263	2325
269.65369	2333
269.67474	2346
269.6958	2358
269.71686	2364
269.73795	2364
269.759	2382
269.78006	2352
269.80112	2374
269.82217	2369
269.84323	2344
269.86429	2370
269.88538	2358
269.90643	2325
269.92749	2360
269.94855	2362
269.9696	2400
269.99066	2366
270.01172	2385
270.03278	2382
270.05383	2364
270.07489	2387
270.09595	2406
270.117	2398
270.13806	2479
270.15912	2438
270.18018	2447
270.20123	2438
270.22229	2446
270.24335	2455
270.2644	2447
270.28546	2453
270.30652	2484
270.32758	2452
270.34863	2458
270.36969	2436
270.39075	2449
270.4118	2441
270.43286	2476
270.45392	2507
270.47498	2511
270.49603	2633
270.51706	2494
270.53812	2513
270.55917	2499
270.58023	2583
270.60129	2589
270.62234	2595
270.6434	2587
270.66443	2597
270.68549	2592
270.70654	2583
270.7276	2614
270.74866	2607
270.76968	2586
270.79074	2597
270.8118	2618
270.83286	2625
270.85388	2622
270.87494	2647
270.896	2636
270.91705	2648
270.93808	2661
270.95914	2663
270.98019	2662
271.00122	2653
271.02228	2657
271.04333	2669
271.06439	2662
271.08542	2693
271.10648	2709
271.12753	2745
271.14856	2733
271.16962	2744
271.19064	2745
271.2117	2721
271.23276	2723
271.25378	2751
271.27484	2784
271.29587	2781
271.31693	2807
271.33798	2813
271.35901	2806
271.38007	2821
271.40109	2813
271.42215	2827
271.44318	2828
271.46423	2828
271.48526	2861
271.50632	2867
271.52734	2847
271.5484	2884
271.56943	2858
271.59048	2852
271.61151	2869
271.63257	2906
271.65359	2903
271.67465	2893
271.69568	2931
271.71674	2920
271.73776	2896
271.75879	2948
271.77985	2967
271.80087	2997
271.82193	3044
271.84296	3024
271.86398	2998
271.88504	3106
271.90607	3113
271.92709	3072
271.94815	3125
271.96918	3110
271.9902	3108
272.01126	3110
272.03229	3117
272.05331	3129
272.07437	3158
272.0954	3169
272.11642	3153
272.13748	3162
272.15851	3173
272.17953	3169
272.20056	3189
272.22162	3215
272.24265	3230
272.26367	3254
272.2847	3275
272.30573	3299
272.32678	3348
272.34781	3316
272.36884	3314
272.38986	3389
272.41089	3375
272.43195	3412
272.45297	3401
272.474	3443
272.49503	3427
272.51605	3485
272.53708	3420
272.55811	3461
272.57913	3521
272.60019	3483
272.62122	3545
272.64224	3505
272.66327	3519
272.6843	3513
272.70532	3529
272.72635	3523
272.74738	3602
272.7684	3583
272.78943	3620
272.81046	3604
272.83148	3666
272.85251	3626
272.87354	3671
272.89456	3718
272.91559	3680
272.93661	3734
272.95764	3765
272.97867	3774
272.99969	3770
273.02072	3795
273.04175	3798
273.06277	3869
273.0838	3901
273.10483	3911
273.12582	3934
273.14685	3894
273.16788	3948
273.1889	3947
273.20993	3982
273.23096	4026
273.25198	4058
273.27298	4089
273.29401	4109
273.31503	4095
273.33606	4205
273.35709	4151
273.37811	4246
273.39911	4253
273.42014	4275
273.44116	4301
273.46219	4285
273.48318	4339
273.50421	4329
273.52524	4372
273.54626	4354
273.56726	4343
273.58829	4407
273.60931	4503
273.63034	4495
273.65134	4500
273.67236	4547
273.69339	4565
273.71439	4593
273.73541	4630
273.75644	4665
273.77744	4625
273.79846	4655
273.81949	4695
273.84048	4757
273.86151	4732
273.88251	4781
273.90353	4802
273.92456	4801
273.94556	4778
273.96658	4792
273.98758	4864
274.00861	4928
274.0296	4961
274.05063	4939
274.07166	4960
274.09265	4962
274.11368	4978
274.13467	4952
274.1557	4970
274.1767	5016
274.19772	5041
274.21872	5088
274.23975	5129
274.26074	5165
274.28174	5155
274.30276	5179
274.32376	5224
274.34479	5227
274.36578	5310
274.38681	5372
274.40781	5436
274.4288	5467
274.44983	5443
274.47083	5482
274.49185	5541
274.51285	5612
274.53384	5609
274.55487	5668
274.57587	5622
274.59686	5652
274.61789	5685
274.63889	5680
274.65988	5752
274.68091	5745
274.7019	5807
274.7229	5825
274.7439	5908
274.76492	5937
274.78592	5962
274.80692	6027
274.82791	6064
274.84894	6072
274.86993	6131
274.89093	6184
274.91193	6210
274.93295	6249
274.95395	6248
274.97495	6305
274.99594	6350
275.01694	6373
275.03793	6358
275.05896	6416
275.07996	6418
275.10095	6425
275.12195	6427
275.14294	6508
275.16394	6550
275.18494	6666
275.20593	6665
275.22696	6675
275.24796	6647
275.26895	6643
275.28995	6713
275.31094	6735
275.33194	6680
275.35294	6746
275.37393	6767
275.39493	6800
275.41592	6913
275.43692	6910
275.45792	6992
275.47891	6922
275.49991	6987
275.5209	7005
275.5419	6957
275.5629	6984
275.58389	7025
275.60489	7011
275.62589	6987
275.64688	7018
275.66788	7086
275.68884	7070
275.70984	7095
275.73083	7165
275.75183	7153
275.77283	7152
275.79382	7160
275.81482	7196
275.83582	7349
275.85678	7367
275.87778	7331
275.89877	7311
275.91977	7369
275.94077	7433
275.96176	7441
275.98273	7528
276.00372	7521
276.02472	7519
276.04572	7458
276.06668	7377
276.08768	7409
276.10867	7408
276.12967	7420
276.15063	7496
276.17163	7565
276.19263	7630
276.21362	7583
276.23459	7522
276.25558	7535
276.27658	7599
276.29755	7597
276.31854	7687
276.33954	7673
276.3605	7648
276.3815	7637
276.4025	7678
276.42346	7647
276.44446	7625
276.46542	7653
276.48642	7661
276.50742	7672
276.52838	7659
276.54938	7669
276.57034	7690
276.59134	7646
276.6123	7673
276.6333	7674
276.65427	7616
276.67526	7633
276.69623	7596
276.71722	7500
276.73822	7569
276.75919	7566
276.78015	7585
276.80115	7590
276.82211	7601
276.84311	7637
276.86407	7568
276.88507	7597
276.90604	7585
276.92703	7523
276.948	7529
276.96896	7537
276.98996	7476
277.01093	7503
277.03192	7441
277.05289	7471
277.07385	7447
277.09485	7385
277.11581	7444
277.13678	7374
277.15778	7356
277.17874	7279
277.19971	7232
277.2207	7283
277.24167	7259
277.26263	7242
277.28363	7125
277.3046	7077
277.32556	7064
277.34653	7101
277.36752	7051
277.38849	7058
277.40945	6990
277.43042	6960
277.45142	6932
277.47238	6944
277.49335	6925
277.51431	6935
277.53528	6909
277.55624	6921
277.57724	6921
277.59821	6870
277.61917	6866
277.64014	6870
277.6611	6784
277.68207	6809
277.70303	6740
277.72403	6669
277.745	6670
277.76596	6611
277.78693	6583
277.80789	6585
277.82886	6504
277.84982	6427
277.87079	6383
277.89175	6413
277.91272	6399
277.93369	6423
277.95465	6333
277.97562	6301
277.99658	6347
278.01755	6387
278.03851	6255
278.05948	6225
278.08044	6226
278.10141	6173
278.12238	6150
278.14334	6129
278.16431	6079
278.18527	6102
278.20624	6065
278.2272	5963
278.24817	5882
278.2691	5886
278.29007	5875
278.31104	5813
278.332	5745
278.35297	5762
278.37393	5703
278.3949	5644
278.41583	5568
278.4368	5561
278.45776	5542
278.47873	5507
278.49969	5551
278.52063	5457
278.5416	5452
278.56256	5359
278.58353	5347
278.60449	5402
278.62543	5312
278.64639	5333
278.66736	5297
278.68829	5285
278.70926	5241
278.73022	5202
278.75119	5137
278.77213	5188
278.79309	5153
278.81406	5142
278.83499	5165
278.85596	5173
278.87692	5089
278.89786	5053
278.91882	4989
278.93976	5014
278.96072	5002
278.98169	4977
279.00262	4952
279.02359	4974
279.04453	4977
279.06549	4929
279.08646	4905
279.10739	4927
279.12836	4853
279.14929	4840
279.17026	4804
279.19119	4792
279.21216	4793
279.23309	4817
279.25406	4734
279.27499	4665
279.29596	4683
279.31689	4633
279.33786	4637
279.3588	4645
279.37976	4622
279.4007	4563
279.42163	4539
279.4426	4573
279.46353	4549
279.4845	4503
279.50543	4474
279.52637	4471
279.54733	4464
279.56827	4432
279.58923	4374
279.61017	4373
279.6311	4400
279.65207	4335
279.673	4293
279.69394	4323
279.7149	4328
279.73584	4321
279.75677	4270
279.77771	4253
279.79868	4232
279.81961	4196
279.84055	4133
279.86148	4121
279.88245	4091
279.90338	4075
279.92432	4068
279.94525	4089
279.96622	4081
279.98715	4072
280.00809	4039
280.02902	4020
280.04996	4003
280.07089	4025
280.09186	4011
280.11279	4025
280.13373	4046
280.15466	4001
280.1756	3942
280.19653	3942
280.21747	3901
280.2384	3887
280.25937	3899
280.2803	3960
280.30124	3908
280.32217	3853
280.34311	3856
280.36404	3830
280.38498	3743
280.40591	3788
280.42685	3789
280.44778	3823
280.46872	3848
280.48965	3823
280.51059	3855
280.53152	3759
280.55246	3727
280.57339	3744
280.59433	3759
280.61526	3768
280.6362	3734
280.65714	3729
280.67804	3690
280.69897	3705
280.71991	3729
280.74084	3651
280.76178	3658
280.78271	3648
280.80365	3651
280.82458	3645
280.84549	3613
280.86642	3591
280.88736	3603
280.90829	3569
280.92923	3584
280.95016	3547
280.97107	3561
280.992	3562
281.01294	3507
281.03387	3542
281.05478	3527
281.07571	3481
281.09665	3511
281.11758	3530
281.13849	3544
281.15942	3508
281.18036	3485
281.20129	3482
281.2222	3422
281.24313	3430
281.26407	3408
281.28497	3394
281.30591	3376
281.32684	3366
281.34775	3340
281.36868	3331
281.38959	3367
281.41052	3345
281.43146	3340
281.45236	3325
281.4733	3306
281.4942	3280
281.51514	3344
281.53607	3406
281.55698	3369
281.57791	3361
281.59882	3361
281.61975	3343
281.64066	3338
281.66159	3329
281.6825	3329
281.70343	3319
281.72433	3320
281.74527	3303
281.76617	3293
281.78711	3148
281.80801	3298
281.82895	3274
281.84985	3361
281.87076	3333
281.89169	3302
281.9126	3272
281.93353	3254
281.95444	3210
281.97534	3256
281.99628	3250
282.01718	3254
282.03812	3267
282.05902	3287
282.07993	3256
282.10086	3225
282.12177	3250
282.14267	3238
282.16357	3226
282.18451	3248
282.20541	3237
282.22632	3201
282.24725	3224
282.26816	3208
282.28906	3243
282.30997	3169
282.3309	3182
282.35181	3143
282.37271	3173
282.39362	3220
282.41452	3175
282.43546	3158
282.45636	3153
282.47726	3194
282.49817	3153
282.51907	3225
282.53998	3177
282.56091	3190
282.58182	3184
282.60272	3179
282.62363	3193
282.64453	3188
282.66544	3136
282.68634	3140
282.70724	3150
282.72815	3121
282.74905	3132
282.76999	3159
282.79089	3155
282.8118	3132
282.8327	3109
282.85361	3089
282.87451	3103
282.89542	3096
282.91632	3098
282.93723	3102
282.95813	3069
282.97903	3060
282.99994	3057
283.02081	3052
283.04172	3057
283.06262	3063
283.08353	3088
283.10443	3044
283.12534	3047
283.14624	3040
283.16714	3057
283.18805	3013
283.20895	3000
283.22983	3033
283.25073	3013
283.27164	3040
283.29254	3011
283.31345	2994
283.33435	2973
283.35522	2984
283.37613	3004
283.39703	3033
283.41794	3010
283.43884	3008
283.45972	3010
283.48062	2975
283.50153	2979
283.52243	2994
283.5433	2977
283.56421	2976
283.58511	2993
283.60599	3012
283.62689	2976
283.6478	2966
283.66867	2972
283.68958	2944
283.71048	2942
283.73135	2971
283.75226	2976
283.77316	2969
283.79404	2966
283.81494	2965
283.83585	2994
283.85672	2991
283.87762	2965
283.8985	2977
283.9194	2998
283.94028	3010
283.96118	2988
283.98209	2978
284.00296	2963
284.02386	2935
