Date and Time:                Sun Jan 29 14:52:25.000 2023
Software Version:             4.31.30023.0
Temperature (C):              -40
Model:                        DU940P_BU2
Data Type:                    Counts
Acquisition Mode:             Single Scan
Trigger Mode:                 Internal
Exposure Time (secs):         2
Readout Mode:                 Full Vertical Binning
Horizontal binning:           1
Extended Dynamic Range:       off
Horizontally flipped:         false
Vertical Shift Speed (usecs): 14.51
Pixel Readout Rate (MHz):     3
Baseline Clamp:               ON
Clock Amplitude:              Normal
Output Amplifier:             High Capacity
Serial Number:                23634
Pre-Amplifier Gain:           1.000000
Spurious Noise Filter Mode:   No Filter
Photon counted:               false
Data Averaging Filter Mode:   No Filter
SR500i:
Serial Number:                
Wavelength (nm):              390
Grating Groove Density (l/mm):1199.47
Grating Blaze:                500
Output Flipper Port:          Direct
Accessory Output Port 1:      Off
Accessory Output Port 2:      Off
Accessory Output Port 3:      Off
Accessory Input Port:         On



368.9736	40871
368.99429	39781
369.01495	40289
369.03564	40349
369.0563	40363
369.077	41090
369.09766	40967
369.11832	41011
369.13901	40858
369.15967	40832
369.18033	40839
369.20102	40671
369.22168	40480
369.24237	40973
369.26303	40980
369.28369	41207
369.30438	41231
369.32504	41453
369.3457	41535
369.36636	41529
369.38705	41717
369.40771	41885
369.42838	41738
369.44907	42043
369.46973	41832
369.49039	41869
369.51105	42097
369.53174	41828
369.5524	42005
369.57306	42298
369.59372	42422
369.61441	42671
369.63507	42800
369.65573	42816
369.67639	42609
369.69705	42971
369.71774	42996
369.7384	43162
369.75906	43319
369.77972	43729
369.80038	43384
369.82104	43542
369.84174	43320
369.8624	43313
369.88306	43290
369.90372	43427
369.92438	43366
369.94504	43389
369.9657	43353
369.98636	43322
370.00702	43079
370.02771	43022
370.04837	42728
370.06903	43154
370.08969	43146
370.11035	42906
370.13101	42530
370.15167	42361
370.17233	42495
370.19299	42809
370.21365	42678
370.23431	42396
370.25497	42361
370.27563	42453
370.2963	42082
370.31696	41912
370.33762	41817
370.35828	41412
370.37894	41005
370.3996	40680
370.42026	40482
370.44092	40178
370.46155	40024
370.48221	39637
370.50287	39574
370.52353	39355
370.54419	39117
370.56485	38989
370.58551	38552
370.60617	38535
370.62683	38451
370.64746	38185
370.66812	38619
370.68878	38582
370.70944	38658
370.7301	38369
370.75076	38170
370.77139	37953
370.79205	37245
370.81271	37023
370.83337	37214
370.85403	36873
370.87466	36684
370.89532	36484
370.91599	36134
370.93665	36059
370.95728	35684
370.97794	35697
370.9986	35708
371.01926	35817
371.03989	35546
371.06055	35213
371.08121	35032
371.10184	34969
371.1225	35381
371.14316	35375
371.16379	35468
371.18445	35326
371.20511	35216
371.22574	34802
371.2464	34818
371.26706	34677
371.28769	34504
371.30835	34622
371.32901	34374
371.34964	34398
371.3703	34320
371.39093	34081
371.41159	33939
371.43225	33862
371.45288	33536
371.47354	33449
371.49417	33454
371.51483	33188
371.53546	33235
371.55612	33159
371.57675	32905
371.59741	32638
371.61804	33006
371.6387	33172
371.65933	33117
371.67999	33343
371.70062	33065
371.72128	33349
371.74191	33218
371.76257	33087
371.7832	32840
371.80386	33122
371.82449	33041
371.84515	33011
371.86578	32736
371.88641	32618
371.90707	32917
371.9277	32957
371.94836	32886
371.96899	32835
371.98962	33084
372.01028	32941
372.03091	32919
372.05157	33008
372.0722	33029
372.09283	33374
372.11349	33376
372.13412	33613
372.15475	33457
372.17538	33812
372.19604	33438
372.21667	33518
372.2373	33532
372.25797	33478
372.27859	33804
372.29922	33644
372.31985	33768
372.34052	33832
372.36115	33998
372.38177	34392
372.4024	34347
372.42307	34393
372.4437	34576
372.46432	34825
372.48495	34584
372.50558	34562
372.52625	34790
372.54688	35033
372.5675	35415
372.58813	35863
372.60876	35778
372.62939	36036
372.65005	36162
372.67068	36054
372.69131	36382
372.71194	36315
372.73257	36341
372.7532	36493
372.77383	36362
372.79446	36436
372.81509	36509
372.83575	36531
372.85638	36333
372.87701	36212
372.89764	36157
372.91827	36424
372.9389	36777
372.95953	37080
372.98016	37338
373.00079	37014
373.02142	37223
373.04205	37522
373.06268	37618
373.08331	37373
373.10394	37784
373.12457	37868
373.1452	38203
373.16583	38423
373.18646	37948
373.20709	38274
373.22772	38026
373.24832	38173
373.26895	37752
373.28958	38228
373.31021	38312
373.33084	38363
373.35147	38392
373.3721	38517
373.39273	38543
373.41336	38300
373.43396	38059
373.45459	37709
373.47522	37609
373.49585	37577
373.51648	37648
373.53711	37715
373.55771	37987
373.57834	37931
373.59897	37501
373.6196	37804
373.64023	37495
373.66083	37607
373.68146	37844
373.70209	37797
373.72272	37846
373.74332	37641
373.76395	37496
373.78458	37717
373.80521	37783
373.82581	37883
373.84644	38060
373.86707	37856
373.88766	37962
373.90829	37769
373.92892	37663
373.94952	37701
373.97015	37643
373.99078	37670
374.01138	37325
374.03201	37357
374.05264	37614
374.07324	37549
374.09387	37770
374.11447	37493
374.1351	37673
374.15573	37419
374.17633	37313
374.19696	37235
374.21756	37202
374.23819	37542
374.25879	37224
374.27942	37216
374.30005	37054
374.32065	36815
374.34128	36770
374.36188	36840
374.38251	37155
374.40311	36589
374.42374	36704
374.44434	36445
374.46497	36625
374.48557	36714
374.5062	36410
374.52679	36306
374.54739	36119
374.56802	36267
374.58862	35910
374.60925	36132
374.62985	35726
374.65048	35960
374.67108	35674
374.69168	35921
374.71231	36133
374.73291	35846
374.75354	35858
374.77414	35225
374.79474	35241
374.81537	35098
374.83597	35017
374.85657	35012
374.8772	34979
374.8978	35094
374.9184	34831
374.93903	35225
374.95963	35023
374.98022	35472
375.00082	35368
375.02145	35181
375.04205	34988
375.06265	34987
375.08325	35063
375.10388	35153
375.12448	35438
375.14508	35311
375.16568	35177
375.18631	34985
375.20691	35013
375.22751	35605
375.24811	35348
375.26871	35847
375.28934	35455
375.30994	35862
375.33054	35808
375.35114	36040
375.37173	36076
375.39233	35983
375.41293	36090
375.43356	36071
375.45416	36186
375.47476	36291
375.49536	36303
375.51596	36304
375.53656	36371
375.55716	36635
375.57776	36505
375.59836	36924
375.61896	36811
375.63956	36954
375.66016	37086
375.68076	36845
375.70135	37279
375.72195	36732
375.74255	36895
375.76315	36662
375.78375	36843
375.80435	36597
375.82495	36992
375.84555	37310
375.86615	37044
375.88675	37711
375.90735	37428
375.92795	37714
375.94855	37713
375.96915	37748
375.98975	38094
376.01035	37973
376.03094	38206
376.05154	37875
376.07211	38164
376.09271	37984
376.11331	38131
376.13391	38144
376.15451	37842
376.17511	37959
376.19571	37874
376.21628	37978
376.23688	37901
376.25748	38200
376.27808	38409
376.29868	38831
376.31924	38805
376.33984	38992
376.36044	38832
376.38104	38905
376.40164	38799
376.42221	38649
376.44281	38801
376.46341	38816
376.48398	38684
376.50458	38663
376.52518	38291
376.54578	38543
376.56635	38472
376.58694	38724
376.60754	38831
376.62811	38915
376.64871	38777
376.66931	38321
376.68988	38418
376.71048	38031
376.73108	38380
376.75165	38658
376.77225	38521
376.79282	38781
376.81342	38453
376.83401	38384
376.85458	38154
376.87518	38495
376.89575	38376
376.91635	38320
376.93695	38386
376.95752	38039
376.97812	37930
376.99869	37777
377.01929	37792
377.03986	37458
377.06046	37130
377.08102	37152
377.10162	36722
377.12219	37057
377.14279	36918
377.16336	36944
377.18396	36973
377.20453	36647
377.22513	36833
377.2457	36746
377.26627	36968
377.28687	36511
377.30743	36777
377.32803	36630
377.3486	36644
377.36917	36515
377.38977	36055
377.41034	36340
377.43094	36133
377.45151	35976
377.47208	35798
377.49268	35663
377.51324	35756
377.53381	35633
377.55441	35952
377.57498	35604
377.59555	35679
377.61615	35483
377.63672	35195
377.65729	35287
377.67786	35037
377.69846	35486
377.71902	35113
377.73959	35318
377.76016	35131
377.78076	35006
377.80133	34849
377.8219	34554
377.84247	34753
377.86307	34536
377.88364	34889
377.90421	34658
377.92477	34647
377.94534	34584
377.96591	34450
377.98651	34924
378.00708	34502
378.02765	34888
378.04822	34729
378.06879	34835
378.08936	34933
378.10992	34558
378.13049	34701
378.15109	34568
378.17166	35156
378.19223	35169
378.2128	35026
378.23337	35249
378.25394	35153
378.27451	35498
378.29507	35223
378.31564	35574
378.33621	35194
378.35678	35373
378.37735	35200
378.39792	34991
378.41849	35381
378.43906	35082
378.45963	35285
378.48019	35068
378.50076	35107
378.52133	35277
378.5419	35518
378.56247	35947
378.58304	35750
378.60361	35849
378.62418	35613
378.64474	36063
378.66528	36248
378.68585	36091
378.70642	36402
378.72699	36255
378.74756	36357
378.76813	36347
378.7887	36429
378.80927	36444
378.8298	36314
378.85037	36635
378.87094	36417
378.89151	37081
378.91208	36996
378.93262	37003
378.95319	37200
378.97375	37086
378.99432	37469
379.01489	37135
379.03543	37142
379.056	36965
379.07657	36811
379.09711	36981
379.11768	37055
379.13824	37542
379.15881	37507
379.17935	37898
379.19992	37615
379.22049	37610
379.24103	37849
379.2616	37839
379.28217	38159
379.3027	38153
379.32327	38467
379.34384	38655
379.36438	38430
379.38495	38588
379.40552	38508
379.42606	38929
379.44662	38846
379.46716	39100
379.48773	38980
379.50827	39061
379.52884	39084
379.54941	38794
379.56995	39114
379.59052	38653
379.61105	38867
379.63162	39312
379.65216	39241
379.67273	39718
379.69327	39734
379.71384	39629
379.73438	39524
379.75494	39590
379.77548	39751
379.79605	39684
379.81659	39994
379.83716	39794
379.8577	39882
379.87823	39998
379.8988	39565
379.91934	39618
379.93991	39355
379.96045	39640
379.98102	39418
380.00156	39387
380.02209	39178
380.04266	38861
380.0632	38816
380.08374	38746
380.10431	38966
380.12485	38529
380.14539	38488
380.16595	38377
380.18649	37996
380.20703	38100
380.2276	37940
380.24814	38019
380.26868	37886
380.28922	37585
380.30978	37836
380.33032	37560
380.35086	37587
380.3714	37053
380.39197	36888
380.41251	36438
380.43304	36337
380.45358	36194
380.47412	35925
380.49469	35550
380.51523	35247
380.53577	35208
380.5563	34929
380.57684	35074
380.59741	34959
380.61795	34475
380.63849	34493
380.65903	34254
380.67957	34350
380.7001	34560
380.72064	34472
380.74118	34669
380.76172	33911
380.78229	33941
380.80283	33626
380.82336	33603
380.8439	33603
380.86444	33360
380.88498	33615
380.90552	33134
380.92606	33161
380.94659	32616
380.96713	32454
380.98767	32302
381.00821	31939
381.02875	32752
381.04929	32272
381.06982	32617
381.09036	32047
381.1109	31747
381.13144	31996
381.15198	31598
381.17249	31870
381.19302	31777
381.21356	31941
381.2341	31884
381.25464	31546
381.27518	31653
381.29572	31244
381.31625	31271
381.33679	31167
381.3573	30941
381.37784	31129
381.39838	30753
381.41891	30858
381.43945	30583
381.45999	30885
381.4805	30706
381.50104	30466
381.52158	30979
381.54211	30611
381.56265	31001
381.58316	30626
381.6037	30566
381.62424	30909
381.64478	30788
381.66528	31248
381.68582	30769
381.70636	31208
381.72687	31047
381.74741	30974
381.76794	31241
381.78845	30794
381.80899	31075
381.82953	30877
381.85004	31153
381.87057	31410
381.89111	31295
381.91162	31721
381.93216	31534
381.9527	31804
381.97321	31677
381.99374	31661
382.01425	32086
382.03479	31803
382.05533	32272
382.07584	32149
382.09637	32448
382.11688	32444
382.13742	32484
382.15793	32890
382.17847	32679
382.19897	33259
382.21951	33175
382.24002	33219
382.26056	33403
382.28107	33292
382.30161	33852
382.32211	33836
382.34265	34245
382.36316	34571
382.3837	34701
382.40421	35044
382.42474	34904
382.44525	35400
382.46576	35305
382.4863	35476
382.50681	35779
382.52734	35748
382.54785	36005
382.56836	35958
382.5889	36226
382.60941	36243
382.62991	36065
382.65045	36417
382.67096	36059
382.69147	36525
382.71201	36720
382.73251	37163
382.75302	37580
382.77356	37249
382.79407	37727
382.81458	37941
382.83508	38347
382.85562	38470
382.87613	38483
382.89664	38868
382.91714	39048
382.93768	39336
382.95819	39362
382.9787	39676
382.99921	39918
383.01971	39891
383.04025	40091
383.06076	39972
383.08127	40277
383.10178	40453
383.12228	40564
383.14279	40861
383.16333	40813
383.18384	41008
383.20435	41098
383.22485	40811
383.24536	41301
383.26587	41168
383.28638	41436
383.30688	41316
383.32739	41887
383.3479	41647
383.36844	41692
383.38895	41873
383.40945	41638
383.42996	42091
383.45047	41843
383.47098	42002
383.49149	42208
383.51199	42264
383.5325	42054
383.55301	42008
383.57352	42533
383.59402	42345
383.61453	42400
383.63501	42539
383.65552	42447
383.67603	42290
383.69653	42321
383.71704	42300
383.73755	42341
383.75806	42378
383.77856	42503
383.79907	42332
383.81958	42386
383.84006	42217
383.86057	42197
383.88107	42223
383.90158	42003
383.92209	41937
383.9426	41903
383.96307	41625
383.98358	41786
384.00409	41560
384.0246	41357
384.0451	40999
384.06558	40945
384.08609	40951
384.1066	40755
384.12711	40981
384.14758	40871
384.16809	40768
384.1886	40373
384.20911	40113
384.22958	40186
384.25009	39755
384.2706	39961
384.29108	39307
384.31158	39218
384.33209	39312
384.35257	38951
384.37308	38995
384.39359	38772
384.41406	38508
384.43457	38311
384.45508	37988
384.47556	38198
384.49606	37896
384.51654	37746
384.53705	37461
384.55753	37325
384.57803	37217
384.59854	36905
384.61902	36722
384.63953	36352
384.66	36129
384.68051	36147
384.70099	35922
384.7215	36242
384.74197	35955
384.76248	35814
384.78296	35787
384.80347	35297
384.82394	35557
384.84445	35375
384.86493	35503
384.88541	35344
384.90591	35650
384.92639	35523
384.9469	35201
384.96738	35534
384.98788	35141
385.00836	35173
385.02884	35155
385.04935	34881
385.06982	34994
385.0903	34820
385.11081	34681
385.13129	34596
385.15176	34528
385.17227	34683
385.19275	34332
385.21323	34661
385.23373	34891
385.25421	34970
385.27469	35058
385.2952	34752
385.31567	34782
385.33615	34768
385.35663	34913
385.37714	35194
385.39761	35031
385.41809	35435
385.43857	35244
385.45905	35362
385.47955	35440
385.50003	34939
385.52051	35302
385.54099	35221
385.56146	35301
385.58194	35447
385.60245	35290
385.62292	35617
385.6434	35366
385.66388	35841
385.68436	35954
385.70483	35711
385.72531	35968
385.74579	35759
385.76627	35822
385.78677	35789
385.80725	36166
385.82773	36374
385.84821	36286
385.86868	36876
385.88916	36829
385.90964	37035
385.93011	37220
385.95059	36886
385.97107	37299
385.99155	36989
386.01202	37304
386.0325	37254
386.05298	37201
386.07346	37411
386.09393	37189
386.11441	37490
386.13486	37632
386.15533	37757
386.17581	38034
386.19629	37749
386.21677	37917
386.23724	37967
386.25772	38522
386.2782	38727
386.29868	39091
386.31912	39359
386.3396	39224
386.36008	39301
386.38055	39584
386.40103	39504
386.42151	39758
386.44196	39830
386.46243	40155
386.48291	40123
386.50339	40072
386.52383	40213
386.54431	40034
386.56479	40231
386.58527	40579
386.60571	40899
386.62619	41297
386.64667	41315
386.66714	41082
386.68759	41278
386.70807	41210
386.72855	41649
386.74899	41903
386.76947	42106
386.78995	42316
386.81039	42511
386.83087	42171
386.85135	42314
386.8718	42326
386.89227	42494
386.91272	42370
386.9332	42492
386.95367	42300
386.97412	42417
386.9946	42095
387.01505	42320
387.03552	42274
387.05597	42064
387.07645	42224
387.09692	41864
387.11737	42193
387.13785	41980
387.15829	41880
387.17877	41824
387.19922	41842
387.2197	41772
387.24014	42001
387.26059	41959
387.28107	41963
387.30151	41743
387.32199	41606
387.34244	41591
387.36292	41221
387.38336	41268
387.40381	40894
387.42429	41079
387.44473	41017
387.46521	40774
387.48566	40570
387.5061	40420
387.52658	40378
387.54703	39947
387.56747	39894
387.58795	39708
387.6084	39227
387.62885	39498
387.64932	39281
387.66977	39002
387.69022	38987
387.71066	38493
387.73114	38621
387.75159	38378
387.77203	38263
387.79248	38085
387.81296	37874
387.8334	37843
387.85385	37406
387.8743	37403
387.89478	37290
387.91522	37105
387.93567	37497
387.95612	36918
387.97656	36938
387.99701	36949
388.01749	36765
388.03793	36850
388.05838	36415
388.07883	36417
388.09927	36118
388.11972	35899
388.14017	36031
388.16061	35569
388.18106	35566
388.20154	35390
388.22198	34991
388.24243	34848
388.26288	34591
388.28333	34779
388.30377	34648
388.32422	34647
388.34467	34603
388.36511	34061
388.38556	34286
388.40601	34200
388.42645	33991
388.4469	34082
388.46735	33799
388.48779	33894
388.50824	33787
388.52866	33640
388.5491	33667
388.56955	33358
388.59	33526
388.61044	33074
388.63089	33022
388.65134	33301
388.67178	32904
388.69223	33061
388.71265	32874
388.73309	32810
388.75354	32789
388.77399	32372
388.79443	32527
388.81488	32347
388.8353	32325
388.85574	32490
388.87619	32167
388.89664	32435
388.91705	32339
388.9375	32328
388.95795	32334
388.97839	32100
388.99881	32404
389.01926	32147
389.0397	32255
389.06015	32506
389.08057	32108
389.10101	32359
389.12146	32333
389.14188	32506
389.16232	32678
389.18277	32608
389.20319	32986
389.22363	32644
389.24408	32670
389.2645	32740
389.28494	32604
389.30536	33017
389.32581	33059
389.34625	33162
389.36667	33437
389.38712	33361
389.40753	33848
389.42798	33492
389.44839	33713
389.46884	33796
389.48926	33638
389.5097	33943
389.53012	33789
389.55057	34030
389.57098	34292
389.59143	34208
389.61185	34453
389.63229	34332
389.65271	34484
389.67316	34846
389.69357	34727
389.71402	35215
389.73444	34839
389.75488	35057
389.7753	35383
389.79572	35390
389.81616	35738
389.83658	35805
389.85699	35894
389.87744	36161
389.89786	36059
389.91827	36367
389.93872	36194
389.95914	36562
389.97955	36895
390	36443
390.02042	36869
390.04083	37705
390.06128	37307
390.0817	37711
390.10211	37754
390.12253	38161
390.14297	38236
390.16339	38191
390.18381	38304
390.20422	38374
390.22467	38481
390.24509	38736
390.2655	38823
390.28592	39190
390.30634	39169
390.32678	39443
390.3472	39429
390.36761	39478
390.38803	39635
390.40845	39928
390.42886	40365
390.44928	40584
390.4697	40834
390.49014	40983
390.51056	40940
390.53098	41194
390.55139	41134
390.57181	41408
390.59222	41438
390.61264	41424
390.63306	41887
390.65347	41421
390.67389	41505
390.69431	41612
390.71472	41551
390.73514	41634
390.75555	42266
390.77597	42168
390.79639	42734
390.8168	42622
390.83722	42370
390.85764	42976
390.87805	42916
390.89847	43077
390.91888	43111
390.93927	43277
390.95969	43513
390.9801	43398
391.00052	43692
391.02094	43414
391.04135	43482
391.06177	43557
391.08218	43226
391.10257	43412
391.12299	43724
391.1434	43379
391.16382	43421
391.18423	43371
391.20462	43436
391.22504	43539
391.24545	43368
391.26587	43645
391.28629	43404
391.30667	43213
391.32709	43325
391.3475	43243
391.36789	43284
391.38831	43517
391.40872	43601
391.42914	43432
391.44952	43488
391.46994	43367
391.49036	43286
391.51074	43435
391.53116	43022
391.55157	42816
391.57196	42682
391.59238	42508
391.61276	42517
391.63318	42168
391.65359	42054
391.67398	42603
391.6944	42148
391.71478	42216
391.7352	42474
391.75558	42140
391.776	42294
391.79642	42111
391.8168	42175
391.83722	42805
391.8576	42327
391.87802	42555
391.89841	42525
391.91882	42451
391.93921	42435
391.95963	42320
391.98001	42401
392.0004	42489
392.02081	42388
392.0412	42105
392.06161	42127
392.082	41969
392.10242	41864
392.1228	42163
392.14319	42190
392.1636	42528
392.18399	42295
392.20438	42377
392.22479	42144
392.24518	42134
392.26556	41920
392.28598	42126
392.30637	42466
392.32675	42617
392.34717	42875
392.36755	42683
392.38794	42830
392.40836	42597
392.42874	42666
392.44913	42635
392.46951	42863
392.4899	42854
392.51031	42711
392.5307	42871
392.55109	42627
392.57147	42789
392.59189	42839
392.61227	42631
392.63266	42526
392.65305	42670
392.67343	42706
392.69382	42532
392.7142	42772
392.73462	42894
392.755	42722
392.77539	43190
392.79578	42929
392.81616	43444
392.83655	43043
392.85693	43195
392.87732	43603
392.89771	43301
392.91809	43634
392.93848	43670
392.95886	43652
392.97925	43872
392.99963	43807
393.02002	44029
393.04041	43626
393.06079	43840
393.08118	44150
393.10156	43624
393.12195	43844
393.14233	43831
393.16272	44018
393.18311	43956
393.20349	43989
393.22388	43843
393.24426	43991
393.26465	43795
393.28503	43995
393.30542	44036
393.32578	44170
393.34616	44172
393.36655	44258
393.38693	44390
393.40732	44157
393.4277	44342
393.44806	44139
393.46844	44319
393.48883	44572
393.50922	44322
393.5296	44495
393.54996	44491
393.57034	44644
393.59073	44677
393.61111	44549
393.63147	44470
393.65186	44782
393.67224	44327
393.6926	44384
393.71298	44516
393.73337	44397
393.75375	44605
393.77411	44071
393.79449	44254
393.81488	44064
393.83524	44118
393.85562	44243
393.87598	44565
393.89636	44450
393.91675	43891
393.9371	44327
393.95749	44148
393.97784	44146
393.99823	44154
394.01862	44211
394.03897	43907
394.05936	44093
394.07971	43820
394.1001	43944
394.12045	43747
394.14084	43514
394.16119	43447
394.18158	43283
394.20193	43269
394.22232	43115
394.24268	42843
394.26306	42904
394.28342	42907
394.3038	42631
394.32416	42427
394.34451	42186
394.3649	42013
394.38525	41832
394.40564	41651
394.42599	41639
394.44635	41353
394.46674	41407
394.48709	41499
394.50745	41263
394.52783	41247
394.54819	40899
394.56854	41118
394.58893	40711
394.60928	40681
394.62964	40768
394.65002	40424
394.67038	40387
394.69073	40151
394.71109	40257
394.73148	40018
394.75183	40342
394.77219	39707
394.79254	39702
394.8129	39407
394.83328	39573
394.85364	39616
394.87399	39094
394.89435	39483
394.9147	39105
394.93509	39334
394.95544	39209
394.9758	39001
394.99615	38962
395.01651	38865
395.03687	38898
395.05722	38775
395.07758	38479
395.09793	38806
395.11832	38644
395.13867	38384
395.15903	38352
395.17938	38111
395.19974	38062
395.22009	38161
395.24045	37955
395.2608	38081
395.28116	37770
395.30151	37400
395.32187	37616
395.34222	37451
395.36258	37477
395.38293	37368
395.40329	37413
395.42365	37068
395.44397	37129
395.46432	37044
395.48468	36940
395.50504	37061
395.52539	36970
395.54575	36973
395.5661	36953
395.58646	37058
395.60681	37028
395.62714	36857
395.64749	36891
395.66785	36716
395.6882	36860
395.70856	36414
395.72891	36744
395.74924	36550
395.76959	36477
395.78995	36519
395.8103	36630
395.83063	36656
395.85098	36774
395.87134	36437
395.89169	36734
395.91202	36574
395.93237	36674
395.95273	36971
395.97305	36894
395.99341	37229
396.01376	37375
396.03409	37045
396.05444	37262
396.0748	37294
396.09512	37400
396.11548	37275
396.13583	37333
396.15616	37432
396.17651	37480
396.19684	37359
396.21719	37527
396.23755	37156
396.25787	37306
396.27823	37622
396.29855	37664
396.31891	37913
396.33923	38197
396.35959	38254
396.37991	38153
396.40027	38277
396.42059	38388
396.44095	38676
396.46127	38650
396.48163	38851
396.50195	39073
396.52231	39046
396.54263	39112
396.56299	39140
396.58331	39132
396.60364	39275
396.62399	39417
396.64432	39295
396.66464	39568
396.685	39649
396.70532	39575
396.72568	39718
396.746	39607
396.76633	39703
396.78668	40110
396.80701	40092
396.82733	40163
396.84766	40010
396.86801	40184
396.88834	40157
396.90866	40657
396.92902	40729
396.94934	40595
396.96967	41055
396.98999	41096
397.01035	41158
397.03067	40987
397.05099	41209
397.07132	41110
397.09164	41461
397.112	41265
397.13232	41477
397.15265	41205
397.17297	41421
397.1933	41575
397.21362	41498
397.23395	41596
397.25427	41770
397.27463	41822
397.29495	41705
397.31528	41846
397.3356	42144
397.35593	41939
397.37625	42267
397.39658	42656
397.4169	42363
397.43723	42604
397.45755	42183
397.47787	42917
397.4982	42506
397.51852	42586
397.53885	42482
397.55917	42523
397.5795	42489
397.59982	42453
397.62015	42308
397.64047	42712
397.6608	42582
397.68112	42593
397.70145	42607
397.72177	42588
397.74207	42327
397.76239	42441
397.78271	42510
397.80304	42399
397.82336	42526
397.84369	42668
397.86401	42760
397.88431	42969
397.90463	42650
397.92496	42659
397.94528	42659
397.96561	42626
397.9859	42443
398.00623	42563
398.02655	42223
398.04688	42199
398.06717	42173
398.08749	42413
398.10782	41997
398.12814	41960
398.14844	41927
398.16876	41603
398.18909	41605
398.20938	41420
398.22971	41514
398.25003	41517
398.27032	41387
398.29065	41573
398.31097	41523
398.33127	41429
398.35159	41422
398.37189	41230
398.39221	41194
398.41254	41087
398.43283	41133
398.45316	41063
398.47345	40899
398.49377	41011
398.51407	40765
398.53439	40751
398.55469	40670
398.57501	40613
398.59531	40526
398.61563	40475
398.63593	40338
398.65625	40172
398.67654	40072
398.69687	39957
398.71716	39693
398.73749	39783
398.75778	39445
398.77808	39330
398.7984	39135
398.8187	39525
398.83902	39327
398.85931	39328
398.87961	39277
398.89993	39477
398.92023	39338
398.94052	39017
398.96085	39168
398.98114	39086
399.00143	39177
399.02176	39370
399.04205	39061
399.06235	39017
399.08267	39361
399.10297	39155
399.12326	39118
399.14355	38973
399.16388	39114
399.18417	38997
399.20447	39120
399.22476	39016
399.24506	39077
399.26538	39250
399.28568	39025
399.30597	39075
399.32626	39100
399.34656	39144
399.36685	39112
399.38718	39310
399.40747	39465
399.42776	39221
399.44806	39516
399.46835	39223
399.48865	39728
399.50894	39546
399.52924	39699
399.54953	39679
399.56982	39710
399.59012	39938
399.61041	40037
399.63071	39981
399.651	39994
399.6713	40078
399.69159	40079
399.71188	40269
399.73218	40292
399.75247	40247
399.77277	40443
399.79306	40563
399.81335	40617
399.83365	40338
399.85394	40488
399.87424	40350
399.89453	40733
399.91483	40484
399.93512	40644
399.95538	40770
399.97568	41017
399.99597	41181
400.01627	41104
400.03656	41400
400.05685	41627
400.07712	41702
400.09741	41999
400.11771	42156
400.138	42373
400.15829	42527
400.17856	42681
400.19885	42454
400.21915	42910
400.23944	42845
400.2597	43243
400.28	43424
400.30029	43460
400.32059	43601
400.34085	43693
400.36115	43909
400.38144	43907
400.4017	44458
400.422	44228
400.44229	44577
400.46255	45032
400.48285	45310
400.50311	45260
400.52341	45600
400.5437	45664
400.56396	45740
400.58426	46102
400.60452	46390
400.62482	46582
400.64508	46909
400.66537	46933
400.68564	47218
400.70593	47068
400.72623	47492
400.74649	47457
400.76678	47613
400.78705	47709
400.80731	47879
400.82761	47917
400.84787	48083
400.86816	48211
400.88843	48312
400.90872	48418
400.92899	48514
400.94928	48623
400.96954	48683
400.98981	48769
401.0101	48852
401.03036	48950
401.05063	49027
401.07092	49119
401.09119	49199
401.11145	49288
401.13174	49338
401.15201	49402
401.17227	49424
401.19257	49436
401.21283	49440
401.23309	49424
401.25336	49409
401.27365	49404
401.29391	49402
401.31418	49379
401.33444	49371
401.35474	49336
401.375	49293
401.39526	49261
401.41553	49211
401.43579	49187
401.45609	49170
401.47635	49146
401.49661	49124
401.51688	49093
401.53714	49031
401.5574	48974
401.57767	48891
401.59793	48814
401.61823	48671
401.63849	48493
401.65875	48276
401.67902	48025
401.69928	47828
401.71954	47535
401.73981	47287
401.76007	47111
401.78033	46732
401.8006	46450
401.82086	46526
401.84113	46118
401.86139	46089
401.88165	45861
401.90192	45575
401.92218	45364
401.94244	45352
401.96271	44827
401.98297	44893
402.0032	44800
402.02347	44286
402.04373	44131
402.064	43796
402.08426	43618
402.10452	43210
402.12479	42955
402.14505	42617
402.16528	42383
402.18555	42392
402.20581	41794
402.22607	41652
402.24634	41337
402.26657	40989
402.28683	40714
402.3071	40260
402.32736	40241
402.3476	39618
402.36786	39311
402.38812	38982
402.40839	38954
402.42862	38617
402.44888	38608
402.46915	38551
402.48938	38034
402.50964	38023
402.52991	37476
402.55014	37337
402.5704	37023
402.59067	36937
402.6109	36743
402.63116	36683
402.6514	36213
402.67166	35839
402.69193	35573
402.71216	35456
402.73242	35256
402.75266	34872
402.77292	34812
402.79315	34709
402.81342	34214
402.83365	34349
402.85391	33971
402.87415	34139
402.89441	33879
402.91464	33690
402.93491	33497
402.95514	33288
402.9754	33144
402.99564	33071
403.0159	32688
403.03613	32558
403.0564	32527
403.07663	32322
403.09686	32161
403.11713	32103
403.13736	31859
403.15759	32012
403.17786	31749
403.19809	31796
403.21832	31862
403.23859	31496
403.25882	31543
403.27905	31310
403.29932	31311
403.31955	31339
403.33978	31210
403.36002	31304
403.38028	31313
403.40051	31233
403.42075	31313
403.44098	31215
403.46124	31281
403.48148	31620
403.50171	31457
403.52194	31491
403.54218	31571
403.56244	31251
403.58267	31592
403.60291	31597
403.62314	31509
403.64337	31586
403.6636	31538
403.68384	31639
403.70407	32056
403.72433	31895
403.74457	32366
403.7648	32676
403.78503	32680
403.80527	32965
403.8255	33089
403.84573	33422
403.86597	33511
403.8862	33708
403.90643	34117
403.92667	34505
403.9469	34527
403.96713	34792
403.98737	35097
404.0076	35068
404.02783	35529
404.04807	35737
404.0683	36144
404.08853	36214
404.10873	36697
404.12897	36689
404.1492	37080
404.16943	37254
404.18967	37363
404.2099	37463
404.23013	37739
404.25034	37861
404.27057	37796
404.2908	38148
404.31104	38088
404.33127	38193
404.35147	38484
404.3717	38622
404.39194	38589
404.41217	38731
404.4324	38747
404.45261	38531
404.47284	38521
404.49307	38129
404.51328	38556
404.53351	38243
404.55374	38122
404.57397	37930
404.59418	37770
404.61441	37589
404.63461	37217
404.65485	36962
404.67508	36640
404.69528	36358
404.71552	36021
404.73575	35587
404.75595	35459
404.77618	34995
404.79639	34490
404.81662	33998
404.83682	33503
404.85706	33040
404.87729	32557
404.89749	32093
404.91772	31814
404.93793	30972
404.95816	30481
404.97836	29954
404.9986	29293
405.0188	28760
405.039	28256
405.05923	27607
405.07944	27100
405.09967	26622
405.11987	25939
405.14011	25504
405.16031	24903
405.18051	24246
405.20074	23697
405.22095	23091
405.24115	22504
405.26138	22009
405.28159	21373
405.30179	20848
405.32202	20319
405.34222	19750
405.36243	19229
405.38266	18687
405.40286	18176
405.42307	17675
405.44327	17158
405.4635	16733
405.4837	16386
405.50391	15791
405.52411	15377
405.54434	15021
405.56454	14484
405.58475	14145
405.60495	13766
405.62515	13401
405.64539	13010
405.66559	12643
405.68579	12162
405.70599	11910
405.7262	11512
405.7464	11216
405.7666	10886
405.7868	10538
405.80701	10256
405.82724	9933
405.84744	9527
405.86765	9282
405.88785	9058
405.90805	8766
405.92825	8506
405.94846	8233
405.96866	8054
405.98886	7856
406.00906	7567
406.02927	7358
406.04947	7151
406.06967	6889
406.08987	6727
406.11005	6504
406.13025	6382
406.15045	6170
406.17065	5985
406.19086	5807
406.21106	5652
406.23126	5448
406.25146	5301
406.27167	5179
406.29184	5033
406.31204	4895
406.33224	4732
406.35245	4620
406.37265	4508
406.39282	4391
406.41302	4263
406.43323	4171
406.45343	4029
406.47363	3934
406.4938	3813
406.51401	3719
406.53421	3650
406.55438	3586
406.57458	3467
406.59479	3379
406.61499	3308
406.63516	3225
406.65536	3172
406.67557	3091
406.69574	3001
406.71594	2943
406.73611	2853
406.75632	2807
406.77652	2716
406.79669	2659
406.81689	2616
406.83707	2553
406.85727	2478
406.87747	2444
406.89764	2418
406.91785	2350
406.93802	2306
406.95822	2253
406.97839	2233
406.9986	2200
407.01877	2130
407.03897	2112
407.05914	2077
407.07935	2038
407.09952	2010
407.11969	1950
407.13989	1937
407.16006	1904
407.18027	1874
407.20044	1832
407.22061	1797
407.24081	1779
407.26099	1754
407.28119	1715
407.30136	1720
407.32153	1667
407.34174	1651
407.36191	1628
407.38208	1598
407.40228	1577
407.42245	1562
407.44263	1518
407.4628	1527
407.483	1513
407.50317	1481
407.52335	1468
407.54352	1452
407.56372	1443
407.58389	1421
407.60406	1388
407.62424	1374
407.64441	1367
407.66458	1342
407.68478	1334
407.70496	1313
407.72513	1291
407.7453	1286
407.76547	1280
407.78564	1261
407.80582	1251
407.82599	1224
407.84619	1222
407.86636	1225
407.88654	1181
407.90671	1182
407.92688	1166
407.94705	1161
407.96722	1155
407.9874	1145
408.00757	1129
408.02774	1119
408.04791	1113
408.06808	1104
408.08826	1100
408.10843	1089
408.1286	1071
408.14874	1060
408.16891	1058
408.18909	1063
408.20926	1044
408.22943	1031
408.2496	1025
408.26978	1025
408.28995	1011
408.31012	999
408.33026	996
408.35043	988
408.37061	978
408.39078	964
408.41095	944
408.43109	958
408.45126	942
408.47144	931
408.49161	919
408.51175	917
408.53192	909
408.55209	901
408.57227	881
408.59241	886
408.61258	818
408.63275	875
408.65289	868
408.67307	863
408.69324	859
408.71338	843
408.73355	835
408.75372	833
408.77386	820
408.79404	804
408.81418	813
408.83435	805
408.85452	797
408.87466	788
408.89484	787
408.91498	786
408.93515	775
408.95529	772
408.97546	763
408.99561	749
409.01578	749
409.03592	731
409.05609	727
409.07623	728
409.09641	723
409.11655	723
409.13672	710
409.15686	710
409.177	699
409.19717	697
409.21732	691
409.23749	677
409.25763	681
409.27777	672
409.29794	668
409.31808	668
409.33823	654
409.3584	652
409.37854	653
409.39868	636
409.41885	637
409.439	630
409.45914	629
409.47928	630
409.49945	613
409.51959	617
409.53973	605
409.55988	609
409.58002	595
409.60019	598
409.62033	591
409.64047	583
409.66061	588
409.68076	582
409.70093	590
409.72107	580
409.74121	569
409.76135	565
409.78149	560
409.80164	555
409.82178	560
409.84192	547
409.86206	549
409.8822	544
409.90234	537
409.92249	541
409.94266	541
409.9628	540
409.98294	536
410.00308	531
410.02322	517
410.04337	520
410.06348	524
410.08362	514
410.10376	520
410.1239	515
410.14404	511
410.16418	515
410.18433	506
410.20447	503
410.22461	501
410.24475	505
410.26489	496
410.285	493
410.30515	499
410.32529	498
410.34543	495
410.36557	492
410.38571	489
410.40582	485
410.42596	491
410.44611	485
410.46625	484
410.48636	482
410.5065	479
410.52664	472
410.54678	476
410.56689	468
410.58704	470
410.60718	476
410.62729	476
410.64743	471
410.66757	472
410.68768	469
410.70782	465
410.72797	476
410.74808	478
410.76822	457
