Date and Time:                Wed Oct 26 12:48:10.000 2022
Software Version:             4.31.30023.0
Temperature (C):              -40
Model:                        DU940P_BU2
Data Type:                    Counts
Acquisition Mode:             Single Scan
Trigger Mode:                 Internal
Exposure Time (secs):         70
Readout Mode:                 Full Vertical Binning
Horizontal binning:           1
Extended Dynamic Range:       off
Horizontally flipped:         false
Vertical Shift Speed (usecs): 14.51
Pixel Readout Rate (MHz):     3
Baseline Clamp:               ON
Clock Amplitude:              Normal
Output Amplifier:             High Capacity
Serial Number:                23634
Pre-Amplifier Gain:           1.000000
Spurious Noise Filter Mode:   No Filter
Photon counted:               false
Data Averaging Filter Mode:   No Filter
SR500i:
Serial Number:                
Wavelength (nm):              214
Grating Groove Density (l/mm):1199.47
Grating Blaze:                500
Output Flipper Port:          Direct
Accessory Output Port 1:      Off
Accessory Output Port 2:      Off
Accessory Output Port 3:      Off
Accessory Input Port:         On



192.0349	533
192.05646	523
192.078	506
192.09956	504
192.12112	509
192.14268	504
192.16425	491
192.18581	485
192.20735	465
192.22891	475
192.25047	484
192.27203	482
192.29358	480
192.31514	482
192.3367	481
192.35826	474
192.37981	486
192.40137	485
192.42293	513
192.44449	480
192.46603	476
192.48759	489
192.50916	510
192.5307	502
192.55226	492
192.57381	480
192.59537	483
192.61693	493
192.63847	490
192.66003	495
192.68159	486
192.70314	480
192.7247	486
192.74625	500
192.76781	508
192.78935	520
192.81091	514
192.83246	510
192.85402	504
192.87556	500
192.89713	489
192.91867	516
192.94023	507
192.96178	520
192.98334	529
193.00488	509
193.02643	509
193.04799	478
193.06953	502
193.09109	500
193.11264	514
193.13419	515
193.15575	520
193.17729	528
193.19884	524
193.2204	518
193.24194	505
193.26349	530
193.28505	512
193.30659	520
193.32814	523
193.34969	519
193.37125	546
193.39279	514
193.41434	517
193.43588	509
193.45744	516
193.47899	514
193.50053	537
193.52208	525
193.54362	518
193.56517	521
193.58673	542
193.60828	518
193.62982	539
193.65137	541
193.67291	528
193.69446	513
193.716	518
193.73755	522
193.75909	517
193.78064	520
193.80219	515
193.82375	521
193.84529	521
193.86684	515
193.88838	522
193.90993	532
193.93147	535
193.953	518
193.97455	521
193.99609	517
194.01764	532
194.03918	535
194.06073	523
194.08228	520
194.10382	537
194.12537	531
194.14691	530
194.16846	520
194.18999	525
194.21153	515
194.23308	524
194.25462	528
194.27617	521
194.29771	525
194.31924	528
194.34079	538
194.36234	548
194.38388	541
194.40541	515
194.42696	524
194.4485	543
194.47005	529
194.49158	520
194.51312	498
194.53467	486
194.5562	501
194.57774	503
194.59929	504
194.62082	494
194.64236	504
194.66391	504
194.68544	498
194.70699	510
194.72852	548
194.75006	523
194.77161	498
194.79314	500
194.81468	530
194.83621	537
194.85776	527
194.87929	493
194.90083	518
194.92236	585
194.94391	549
194.96544	535
194.98698	534
195.00851	513
195.03006	501
195.05159	523
195.07312	521
195.09467	550
195.1162	542
195.13774	542
195.15927	549
195.1808	517
195.20235	515
195.22388	533
195.24541	568
195.26695	551
195.28848	554
195.31001	543
195.33156	553
195.35309	546
195.37462	537
195.39616	536
195.41769	548
195.43922	553
195.46075	557
195.48228	560
195.50383	558
195.52536	560
195.54689	546
195.56842	542
195.58995	542
195.6115	548
195.63303	561
195.65456	559
195.67609	568
195.69762	557
195.71915	562
195.74068	563
195.76221	566
195.78374	560
195.80528	553
195.82681	562
195.84834	552
195.86987	557
195.8914	581
195.91293	560
195.93446	559
195.95599	569
195.97752	567
195.99905	579
196.02058	569
196.0421	573
196.06363	580
196.08516	572
196.10669	562
196.12822	580
196.14975	571
196.17128	583
196.19281	581
196.21434	583
196.23586	592
196.25739	568
196.27892	581
196.30045	586
196.32198	591
196.34351	580
196.36502	585
196.38655	579
196.40808	587
196.42961	593
196.45113	597
196.47266	592
196.49419	585
196.5157	588
196.53723	610
196.55876	601
196.58029	597
196.60181	599
196.62334	602
196.64485	599
196.66638	614
196.68791	593
196.70943	593
196.73096	607
196.75249	598
196.774	602
196.79553	625
196.81705	621
196.83858	622
196.86009	623
196.88162	628
196.90314	625
196.92467	616
196.94618	612
196.96771	599
196.98923	604
197.01076	610
197.03227	610
197.0538	653
197.07532	598
197.09683	631
197.11836	633
197.13988	606
197.16141	617
197.18292	627
197.20444	633
197.22597	625
197.24748	646
197.269	620
197.29053	643
197.31204	644
197.33356	624
197.35509	625
197.3766	629
197.39812	661
197.41963	633
197.44116	668
197.46268	648
197.48419	645
197.50571	654
197.52722	644
197.54875	647
197.57027	665
197.59178	661
197.6133	661
197.63481	654
197.65633	659
197.67784	658
197.69937	657
197.72089	708
197.7424	689
197.76392	678
197.78543	676
197.80695	668
197.82846	684
197.84998	681
197.87149	677
197.89301	680
197.91452	681
197.93604	680
197.95755	686
197.97906	684
198.00058	692
198.02209	700
198.04361	692
198.06512	707
198.08664	686
198.10814	689
198.12965	697
198.15117	708
198.17268	698
198.1942	706
198.21571	716
198.23723	709
198.25873	705
198.28024	706
198.30176	697
198.32327	713
198.34479	725
198.36629	727
198.3878	721
198.40932	721
198.43083	723
198.45233	730
198.47385	726
198.49536	749
198.51686	737
198.53838	735
198.55989	752
198.58139	748
198.60291	748
198.62442	771
198.64592	768
198.66743	746
198.68895	764
198.71045	756
198.73196	758
198.75346	754
198.77498	757
198.79648	748
198.81799	763
198.83949	774
198.86101	764
198.88251	767
198.90402	792
198.92552	765
198.94704	788
198.96854	775
198.99005	783
199.01155	790
199.03307	792
199.05457	800
199.07607	803
199.09758	800
199.11908	797
199.14059	805
199.16209	811
199.18359	847
199.20511	812
199.22661	812
199.24811	824
199.26961	845
199.29112	840
199.31262	850
199.33412	836
199.35564	830
199.37714	826
199.39864	841
199.42014	897
199.44164	863
199.46315	847
199.48465	864
199.50615	852
199.52765	858
199.54915	866
199.57065	861
199.59216	857
199.61366	875
199.63516	867
199.65666	874
199.67816	897
199.69966	891
199.72116	877
199.74266	893
199.76416	898
199.78566	893
199.80716	901
199.82866	900
199.85016	918
199.87166	901
199.89316	936
199.91466	930
199.93616	925
199.95766	934
199.97916	941
200.00066	949
200.02216	951
200.04366	968
200.06516	960
200.08664	977
200.10814	958
200.12964	947
200.15114	961
200.17264	988
200.19414	993
200.21562	985
200.23712	1003
200.25862	994
200.28012	987
200.30161	990
200.3231	991
200.3446	995
200.3661	1011
200.38759	1031
200.40909	1013
200.43059	1043
200.45207	1029
200.47357	1027
200.49507	1041
200.51656	1038
200.53806	1053
200.55956	1057
200.58104	1056
200.60254	1054
200.62402	1073
200.64552	1052
200.66702	1077
200.68851	1077
200.71001	1178
200.73149	1089
200.75299	1108
200.77448	1106
200.79597	1104
200.81746	1100
200.83896	1101
200.86044	1120
200.88194	1103
200.90343	1130
200.92491	1136
200.94641	1183
200.9679	1140
200.9894	1150
201.01088	1150
201.03236	1166
201.05386	1185
201.07535	1166
201.09683	1189
201.11833	1200
201.13982	1218
201.1613	1201
201.1828	1206
201.20428	1253
201.22577	1207
201.24725	1228
201.26875	1245
201.29024	1253
201.31172	1244
201.33321	1244
201.35469	1268
201.37619	1259
201.39767	1293
201.41916	1285
201.44064	1295
201.46213	1310
201.48361	1321
201.50511	1327
201.5266	1330
201.54808	1345
201.56956	1340
201.59105	1373
201.61253	1360
201.63402	1358
201.6555	1385
201.67699	1366
201.69847	1386
201.71996	1394
201.74144	1407
201.76292	1442
201.78441	1414
201.80589	1426
201.82738	1446
201.84886	1453
201.87035	1466
201.89183	1478
201.9133	1486
201.93478	1477
201.95627	1492
201.97775	1509
201.99924	1511
202.02072	1505
202.04221	1530
202.06367	1534
202.08516	1521
202.10664	1547
202.12813	1550
202.14961	1556
202.17108	1568
202.19257	1572
202.21405	1571
202.23553	1576
202.257	1600
202.27849	1593
202.29997	1601
202.32144	1610
202.34293	1644
202.36441	1628
202.38588	1653
202.40736	1657
202.42883	1673
202.45032	1690
202.4718	1687
202.49327	1675
202.51476	1819
202.53622	1711
202.55771	1734
202.57918	1744
202.60066	1769
202.62213	1753
202.64362	1768
202.66508	1812
202.68657	1830
202.70804	1809
202.72952	1859
202.75099	1835
202.77248	1894
202.79395	1866
202.81543	1862
202.8369	1874
202.85837	1883
202.87985	1925
202.90132	1923
202.92279	1939
202.94427	1998
202.96574	1963
202.98721	1984
203.0087	1980
203.03017	2002
203.05164	2019
203.0731	2075
203.09459	2099
203.11606	2092
203.13753	2097
203.159	2105
203.18048	2133
203.20195	2135
203.22342	2122
203.24489	2136
203.26636	2167
203.28783	2184
203.30931	2185
203.33078	2207
203.35225	2215
203.37372	2221
203.39519	2227
203.41666	2236
203.43813	2272
203.45959	2273
203.48106	2255
203.50253	2291
203.524	2307
203.54547	2317
203.56694	2342
203.58841	2362
203.60988	2393
203.63135	2394
203.65282	2402
203.67429	2428
203.69576	2443
203.71722	2465
203.73869	2458
203.76016	2519
203.78163	2493
203.80309	2487
203.82455	2506
203.84602	2533
203.86749	2568
203.88896	2580
203.91043	2578
203.93188	2587
203.95335	2633
203.97482	2628
203.99629	2651
204.01775	2666
204.03922	2740
204.06068	2738
204.08215	2751
204.10361	2781
204.12508	2776
204.14655	2779
204.168	2787
204.18947	2847
204.21094	2859
204.23239	2842
204.25386	2892
204.27531	2906
204.29678	2908
204.31825	2922
204.33971	2946
204.36118	2978
204.38263	3025
204.4041	3073
204.42555	3095
204.44702	3085
204.46848	3105
204.48994	3119
204.5114	3192
204.53287	3179
204.55432	3237
204.57579	3245
204.59724	3266
204.6187	3288
204.64017	3318
204.66162	3331
204.68309	3363
204.70454	3414
204.726	3420
204.74747	3425
204.76892	3491
204.79037	3478
204.81184	3527
204.8333	3530
204.85475	3553
204.87621	3592
204.89767	3621
204.91913	3629
204.94058	3653
204.96204	3688
204.98351	3714
205.00496	3805
205.02641	3804
205.04787	3873
205.06932	3854
205.09077	3895
205.11224	3921
205.1337	3978
205.15515	3986
205.17661	4011
205.19806	4019
205.21951	4060
205.24097	4133
205.26242	4148
205.28387	4171
205.30533	4189
205.32678	4235
205.34824	4227
205.36969	4250
205.39114	4288
205.4126	4355
205.43405	4314
205.45551	4381
205.47696	4401
205.49841	4467
205.51987	4470
205.54132	4510
205.56277	4564
205.58421	4622
205.60567	4646
205.62712	4643
205.64857	4703
205.67003	4726
205.69148	4760
205.71292	4809
205.73438	4851
205.75583	4937
205.77728	5000
205.79872	5003
205.82018	5063
205.84163	5147
205.86308	5224
205.88452	5198
205.90598	5250
205.92743	5284
205.94887	5338
205.97032	5419
205.99178	5380
206.01321	5461
206.03467	5514
206.05611	5572
206.07756	5562
206.09901	5625
206.12045	5630
206.14191	5663
206.16335	5716
206.1848	5778
206.20624	5816
206.22769	5838
206.24913	5879
206.27058	5948
206.29202	5986
206.31348	6035
206.33492	6085
206.35637	6155
206.37781	6185
206.39925	6166
206.4207	6257
206.44214	6249
206.46359	6302
206.48503	6368
206.50647	6423
206.52792	6528
206.54936	6586
206.5708	6644
206.59224	6678
206.61369	6743
206.63513	6729
206.65657	6797
206.67802	6839
206.69946	6847
206.7209	6893
206.74234	6984
206.76378	6994
206.78523	7021
206.80667	7074
206.82811	7125
206.84955	7147
206.87099	7198
206.89243	7255
206.91386	7345
206.93532	7491
206.95676	7512
206.9782	7555
206.99963	7594
207.02107	7672
207.04251	7770
207.06395	7806
207.08539	7838
207.10683	7893
207.12827	7961
207.1497	7978
207.17114	7990
207.19258	8091
207.21402	8209
207.23546	8253
207.2569	8339
207.27832	8385
207.29976	8549
207.3212	8595
207.34264	8592
207.36407	8625
207.38551	8695
207.40695	8764
207.42838	8862
207.44981	8943
207.47125	9037
207.49269	9185
207.51413	9143
207.53555	9152
207.55699	9258
207.57843	9308
207.59985	9442
207.62129	9519
207.64273	9578
207.66417	9554
207.68559	9688
207.70703	9728
207.72845	9856
207.74989	9886
207.77133	9908
207.79276	9999
207.81419	10077
207.83562	10087
207.85706	10149
207.87849	10212
207.89992	10293
207.92136	10302
207.94278	10428
207.96422	10556
207.98564	10681
208.00708	10750
208.0285	10829
208.04994	10922
208.07137	10943
208.09279	10897
208.11423	10978
208.13565	11071
208.15709	11118
208.17851	11177
208.19994	11269
208.22137	11396
208.2428	11458
208.26422	11507
208.28566	11533
208.30708	11656
208.32851	11736
208.34995	11786
208.37137	11919
208.39279	12099
208.41422	12317
208.43565	12275
208.45708	12388
208.4785	12452
208.49992	12581
208.52135	12565
208.54279	12619
208.56421	12712
208.58563	12840
208.60706	12913
208.62848	12955
208.6499	13001
208.67133	13009
208.69275	13083
208.71417	13275
208.7356	13433
208.75703	13592
208.77846	13668
208.79988	13768
208.8213	13806
208.84273	13871
208.86415	13929
208.88556	14063
208.90698	14349
208.92841	14529
208.94983	14584
208.97125	14647
208.99268	14802
209.0141	14884
209.03552	14915
209.05695	15021
209.07837	15104
209.09978	15189
209.1212	15179
209.14262	15206
209.16405	15335
209.18547	15401
209.20688	15565
209.2283	15495
209.24973	15594
209.27115	15712
209.29256	15739
209.31398	15858
209.3354	16085
209.35683	16207
209.37823	16295
209.39966	16546
209.42108	16727
209.44249	16766
209.46391	16799
209.48532	16891
209.50674	16967
209.52817	17021
209.54958	17092
209.571	17103
209.59241	17275
209.61383	17390
209.63524	17300
209.65666	17393
209.67807	17672
209.69949	17802
209.7209	17911
209.74232	18079
209.76373	18181
209.78516	18241
209.80656	18274
209.82797	18362
209.8494	18606
209.8708	18751
209.89223	18894
209.91364	18999
209.93504	19237
209.95647	19270
209.97787	19242
209.99928	19329
210.02071	19487
210.04211	19582
210.06352	19624
210.08493	19797
210.10635	19809
210.12776	19803
210.14917	19854
210.17058	20102
210.19199	20334
210.21341	20489
210.23482	20672
210.25623	20603
210.27763	20716
210.29904	20881
210.32045	20980
210.34186	21080
210.36327	21243
210.38469	21382
210.4061	21477
210.42751	21592
210.44891	21756
210.47032	21922
210.49173	22068
210.51314	22181
210.53455	22342
210.55595	22551
210.57736	22587
210.59877	22606
210.62018	22847
210.64157	23004
210.66298	23094
210.68439	23069
210.7058	23158
210.7272	23261
210.74861	23363
210.77002	23487
210.79143	23648
210.81282	23739
210.83423	23906
210.85564	24038
210.87704	24165
210.89844	24319
210.91985	24479
210.94125	24536
210.96266	24638
210.98405	24814
211.00546	24708
211.02687	24916
211.04826	24999
211.06967	25102
211.09108	25175
211.11247	25333
211.13388	25600
211.15529	25727
211.17668	25545
211.19809	25525
211.21948	25393
211.24089	25455
211.2623	25503
211.28369	25703
211.3051	25817
211.32649	25887
211.3479	25887
211.36929	25966
211.3907	26183
211.41209	26360
211.43349	26428
211.4549	26603
211.47629	26528
211.4977	26553
211.51909	26766
211.54048	26887
211.56189	27030
211.58328	27271
211.60469	27259
211.62608	27231
211.64748	27571
211.66887	27942
211.69028	28140
211.71167	28083
211.73306	28079
211.75447	28112
211.77586	28226
211.79726	28371
211.81865	28533
211.84004	28673
211.86145	28702
211.88284	28611
211.90424	28617
211.92563	28645
211.94702	28659
211.96841	28860
211.98981	29059
212.01122	29033
212.03261	28961
212.054	28964
212.07539	29149
212.09679	29197
212.11818	29311
212.13957	29481
212.16096	29673
212.18236	29589
212.20375	29605
212.22514	29667
212.24654	29826
212.26793	29897
212.28932	30080
212.3107	30207
212.33209	30490
212.35349	30565
212.37488	30697
212.39627	30929
212.41766	30855
212.43906	30799
212.46043	30693
212.48183	30595
212.50322	30653
212.52461	30686
212.54601	30665
212.56738	30771
212.58878	30944
212.61017	30923
212.63156	30847
212.65294	30837
212.67433	30841
212.69572	30757
212.7171	30900
212.73849	31124
212.75989	31475
212.78127	31446
212.80266	31476
212.82404	31463
212.84543	31432
212.86681	31374
212.8882	31499
212.90959	31651
212.93097	31791
212.95236	31719
212.97374	31806
212.99513	31753
213.01651	31754
213.0379	31814
213.05928	31850
213.08066	32053
213.10205	32491
213.12343	32760
213.14482	32617
213.1662	32621
213.18758	32518
213.20897	32494
213.23035	32429
213.25172	32585
213.27312	32674
213.29449	32918
213.31587	32921
213.33727	32833
213.35864	32809
213.38002	32839
213.4014	32811
213.42279	32770
213.44417	32924
213.46555	32788
213.48692	32602
213.5083	32375
213.52969	32263
213.55107	32227
213.57245	32202
213.59383	32207
213.6152	32365
213.63658	32380
213.65796	32463
213.67934	32396
213.70071	32450
213.72209	32433
213.74347	32526
213.76485	32823
213.78622	32973
213.8076	32951
213.82898	32990
213.85036	33188
213.87173	33472
213.89311	33258
213.91449	32995
213.93587	32839
213.95724	32871
213.97862	32650
214	32445
214.02138	32737
214.04274	32979
214.06412	33126
214.08549	33016
214.10687	32895
214.12825	32857
214.14961	32794
214.17099	32966
214.19237	33181
214.21375	33322
214.23511	33272
214.25648	33212
214.27786	33139
214.29922	33071
214.3206	33036
214.34198	32876
214.36334	32930
214.38472	32724
214.4061	32656
214.42746	32467
214.44884	32461
214.4702	32262
214.49158	32230
214.51294	32251
214.53432	32507
214.55568	32561
214.57706	32737
214.59842	32562
214.6198	32549
214.64116	32558
214.66254	32495
214.6839	32478
214.70528	32637
214.72664	32819
214.74802	32778
214.76938	32669
214.79074	32535
214.81212	32433
214.83348	32419
214.85484	32420
214.87622	32315
214.89758	32375
214.91895	32184
214.94031	32138
214.96169	32077
214.98305	31957
215.00441	31835
215.02577	31656
215.04715	31570
215.06851	31505
215.08987	31560
215.11124	31536
215.1326	31321
215.15396	31282
215.17534	31311
215.1967	31355
215.21806	31398
215.23943	31300
215.26079	31281
215.28215	31144
215.30351	31098
215.32487	30791
215.34624	30873
215.3676	30827
215.38896	30764
215.41032	30634
215.43169	30411
215.45305	30141
215.47441	30276
215.49577	30129
215.51714	30042
215.5385	29946
215.55986	29796
215.58121	29743
215.60257	29396
215.62393	29178
215.64529	28996
215.66666	29021
215.68802	29029
215.70937	28881
215.73073	28960
215.75209	28964
215.77345	28759
215.7948	28566
215.81616	28481
215.83752	28442
215.85889	28302
215.88023	28320
215.9016	28353
215.92296	28188
215.94431	28138
215.96567	27922
215.98701	28110
216.00838	28267
216.02974	28296
216.05109	28067
216.07245	27890
216.0938	27766
216.11516	27781
216.13651	27560
216.15787	27534
216.17921	27688
216.20058	27737
216.22192	27554
216.24329	27548
216.26463	27454
216.286	27584
216.30734	27451
216.32869	27444
216.35005	27277
216.3714	27180
216.39275	27149
216.41411	27150
216.43546	27258
216.4568	27165
216.47816	26969
216.49951	26720
216.52086	26632
216.54222	26526
216.56357	26305
216.58492	26344
216.60626	26385
216.62761	26313
216.64897	26245
216.67032	26247
216.69167	26313
216.71301	26102
216.73436	26121
216.75571	26161
216.77705	26104
216.79842	26001
216.81976	25737
216.84111	25630
216.86246	25615
216.8838	25434
216.90515	25454
216.9265	25497
216.94785	25571
216.96919	25569
216.99054	25257
217.01189	25066
217.03323	24894
217.05458	24764
217.07591	24656
217.09726	24596
217.11861	24637
217.13995	24585
217.1613	24314
217.18265	24376
217.20399	24447
217.22533	24405
217.24667	24322
217.26802	24283
217.28937	24262
217.31071	24132
217.33205	23986
217.35339	23906
217.37474	23779
217.39609	23768
217.41742	23512
217.43877	23658
217.46011	23773
217.48145	23782
217.50279	23624
217.52412	23368
217.54547	23368
217.56682	23283
217.58815	23255
217.6095	23230
217.63083	23200
217.65218	23299
217.67351	23101
217.69485	23024
217.71619	22880
217.73753	22827
217.75887	22753
217.78021	22710
217.80154	22776
217.82289	22700
217.84422	22443
217.86557	22366
217.8869	22316
217.90823	22173
217.92958	22157
217.95091	22012
217.97224	21901
217.99359	21789
218.01492	21714
218.03625	21590
218.05759	21479
218.07893	21498
218.10027	21302
218.1216	21410
218.14293	21323
218.16428	21252
218.18561	21163
218.20694	21206
218.22827	21053
218.2496	20868
218.27094	20774
218.29228	20641
218.31361	20475
218.33495	20344
218.35628	20311
218.37761	20286
218.39894	20183
218.42027	20121
218.4416	20049
218.46294	19942
218.48427	19867
218.5056	19738
218.52693	19750
218.54826	19812
218.5696	19899
218.59093	19860
218.61226	19731
218.63359	19606
218.65492	19626
218.67624	19466
218.69757	19384
218.7189	19356
218.74023	19279
218.76157	19270
218.7829	19199
218.80421	19033
218.82555	18963
218.84688	18924
218.86821	18903
218.88953	19011
218.91086	19100
218.93219	19053
218.95351	18831
218.97484	18773
218.99617	18734
219.01749	18761
219.03882	18804
219.06015	18885
219.08147	18965
219.1028	19009
219.12411	18865
219.14545	18756
219.16678	18775
219.1881	18721
219.20943	18629
219.23074	18603
219.25208	18477
219.27339	18411
219.29472	18245
219.31604	18210
219.33736	18125
219.35869	18004
219.38	17918
219.40134	17800
219.42265	17751
219.44397	17805
219.4653	17762
219.48662	17699
219.50793	17636
219.52927	17574
219.55058	17645
219.5719	17699
219.59323	17658
219.61455	17572
219.63586	17568
219.65718	17463
219.6785	17376
219.69983	17275
219.72115	17152
219.74246	17057
219.76378	17066
219.7851	16910
219.80641	16874
219.82773	16888
219.84906	16962
219.87038	16851
219.89169	16807
219.91301	16853
219.93433	16728
219.95564	16653
219.97696	16575
219.99828	16570
220.01959	16590
220.04091	16540
220.06223	16486
220.08354	16477
220.10486	16474
220.12617	16441
220.14748	16290
220.16879	16340
220.19011	16233
220.21143	16185
220.23274	16157
220.25406	16050
220.27536	15913
220.29668	15870
220.31799	15911
220.33931	16039
220.36063	15955
220.38193	15863
220.40324	15861
220.42456	15884
220.44586	15742
220.46718	15767
220.48849	15686
220.5098	15695
220.53111	15761
220.55243	15722
220.57373	15622
220.59505	15572
220.61636	15629
220.63766	15520
220.65898	15496
220.68028	15410
220.7016	15413
220.7229	15338
220.74422	15227
220.76552	15201
220.78683	15160
220.80814	15126
220.82945	14982
220.85075	14913
220.87206	14847
220.89337	14909
220.91467	14856
220.93599	14813
220.95729	14811
220.97859	14741
220.99991	14707
221.02121	14740
221.04251	14688
221.06381	14667
221.08513	14623
221.10643	14573
221.12773	14561
221.14903	14396
221.17035	14385
221.19165	14384
221.21295	14341
221.23425	14221
221.25555	14167
221.27686	14199
221.29817	14139
221.31947	14133
221.34077	14009
221.36208	14055
221.38338	13920
221.40468	13843
221.42598	13636
221.44728	13555
221.46858	13519
221.48988	13504
221.51118	13478
221.53249	13509
221.55379	13448
221.57509	13419
221.59639	13263
221.61769	13162
221.63899	13160
221.66028	13111
221.68158	13214
221.70288	13199
221.72418	13126
221.74548	13036
221.76678	13032
221.78807	13060
221.80937	13031
221.83067	13041
221.85197	13022
221.87326	13020
221.89456	12947
221.91586	12796
221.93716	12732
221.95845	12729
221.97975	12748
222.00105	12689
222.02234	12668
222.04364	12640
222.06493	12690
222.08623	12691
222.10753	12564
222.12881	12593
222.15012	12556
222.1714	12559
222.1927	12546
222.21399	12513
222.23529	12525
222.25658	12439
222.27788	12372
222.29916	12316
222.32045	12229
222.34175	12173
222.36304	12214
222.38434	12238
222.40562	12271
222.42691	12173
222.44821	12116
222.4695	12141
222.49078	12024
222.51208	12032
222.53337	12085
222.55466	12019
222.57594	12007
222.59724	11975
222.61853	11882
222.63982	11807
222.6611	11888
222.68239	11817
222.70369	11773
222.72498	11818
222.74626	11771
222.76755	11726
222.78883	11651
222.81012	11499
222.83141	11457
222.85269	11384
222.87398	11377
222.89526	11286
222.91656	11297
222.93785	11245
222.95914	11217
222.98041	11186
223.00169	11198
223.02298	11195
223.04427	11120
223.06555	11083
223.08684	11012
223.10812	11003
223.12941	10914
223.1507	10889
223.17198	10843
223.19325	10789
223.21454	10752
223.23582	10827
223.25711	10885
223.2784	10919
223.29967	10843
223.32095	10694
223.34224	10668
223.36353	10679
223.3848	10647
223.40608	10690
223.42737	10752
223.44864	10727
223.46992	10734
223.4912	10841
223.51248	10774
223.53377	10663
223.55504	10709
223.57632	10684
223.5976	10728
223.61888	10715
223.64015	10643
223.66144	10602
223.68271	10632
223.70399	10617
223.72527	10606
223.74655	10492
223.76782	10430
223.78911	10371
223.81038	10356
223.83165	10390
223.85294	10374
223.87421	10327
223.89549	10331
223.91676	10372
223.93803	10385
223.9593	10324
223.98059	10288
224.00186	10360
224.02313	10266
224.04442	10253
224.06569	10162
224.08696	10200
224.10823	10133
224.1295	10160
224.15077	10054
224.17206	10034
224.19333	10089
224.2146	10020
224.23587	9975
224.25714	9916
224.27841	9862
224.29968	9898
224.32095	9941
224.34222	9928
224.36349	10027
224.38477	9976
224.40604	9957
224.42731	9861
224.44858	9923
224.46985	9831
224.49112	9770
224.51239	9775
224.53366	9833
224.55493	9800
224.5762	9811
224.59747	9795
224.61873	9684
224.64	9659
224.66127	9642
224.68254	9733
224.70381	9736
224.72507	9796
224.74634	9720
224.76761	9625
224.78888	9626
224.81013	9597
224.83141	9637
224.85268	9686
224.87393	9743
224.8952	9713
224.91647	9679
224.93773	9650
224.959	9693
224.98026	9598
225.00153	9633
225.02278	9578
225.04405	9594
225.06532	9507
225.08658	9445
225.10785	9438
225.1291	9425
225.15036	9418
225.17163	9305
225.19289	9279
225.21416	9280
225.23541	9333
225.25668	9247
225.27794	9258
225.29919	9215
225.32047	9265
225.34172	9274
225.36298	9344
225.38425	9364
225.4055	9332
225.42676	9285
225.44801	9296
225.46928	9257
225.49054	9200
225.5118	9232
225.53305	9235
225.55431	9193
225.57558	9051
225.59683	9041
225.61809	9051
225.63934	9087
225.6606	9063
225.68185	9061
225.70311	9031
225.72437	8974
225.74562	8958
225.76688	8898
225.78813	8933
225.80939	8950
225.83064	8919
225.8519	8946
225.87315	8888
225.89441	8863
225.91566	8794
225.93692	8817
225.95818	8803
225.97943	8763
226.00069	8785
226.02194	8809
226.04318	8794
226.06444	8774
226.08569	8660
226.10695	8668
226.1282	8689
226.14944	8773
226.1707	8726
226.19196	8682
226.21321	8608
226.23445	8582
226.25571	8566
226.27696	8563
226.2982	8625
226.31946	8624
226.34071	8634
226.36195	8567
226.38321	8601
226.40445	8604
226.4257	8639
226.44695	8619
226.4682	8630
226.48946	8561
226.5107	8496
226.53195	8551
226.55319	8500
226.57443	8548
226.59569	8503
226.61693	8436
226.63818	8426
226.65942	8388
226.68066	8411
226.70192	8421
226.72316	8414
226.74442	8406
226.76566	8389
226.7869	8399
226.80814	8446
226.82939	8453
226.85063	8406
226.87187	8359
226.89311	8349
226.91437	8324
226.93561	8263
226.95685	8199
226.97809	8200
226.99933	8163
227.02058	8153
227.04182	8164
227.06306	8205
227.0843	8182
227.10555	8209
227.12679	8177
227.14803	8146
227.16927	8135
227.19051	8048
227.21175	8027
227.23299	8029
227.25423	7995
227.27547	7973
227.29671	7995
227.31795	8039
227.33919	8027
227.36043	8052
227.38167	7999
227.40289	8023
227.42413	7940
227.44537	7943
227.46661	7975
227.48785	7959
227.50908	8018
227.53032	7973
227.55156	7960
227.5728	8025
227.59402	7999
227.61526	8060
227.63651	8045
227.65775	8037
227.67897	8007
227.70021	7938
227.72144	7892
227.74268	7855
227.76392	7904
227.78514	7879
227.80638	7882
227.82761	7917
227.84885	7952
227.87007	7978
227.89131	7902
227.91254	7933
227.93378	8017
227.955	7938
227.97624	7945
227.99747	7910
228.01871	7964
228.03993	7960
228.06117	7992
228.0824	7908
228.10362	7916
228.12486	7898
228.14609	7867
228.16731	7943
228.18855	7919
228.20978	7931
228.231	7942
228.25223	7960
228.27347	7995
228.29469	7954
228.31592	8026
228.33714	8022
228.35837	8038
228.37959	7995
228.40083	7984
228.42206	7987
228.44328	7988
228.46451	8013
228.48573	8029
228.50696	8064
228.52818	8122
228.54941	8094
228.57063	8027
228.59186	7988
228.61308	7966
228.63431	8023
228.65553	7997
228.67676	8087
228.69798	8087
228.71921	8094
228.74043	8052
228.76166	8103
228.78287	8180
228.80409	8131
228.82532	8115
228.84654	8155
228.86777	8151
228.88899	8199
228.9102	8173
228.93143	8188
228.95265	8113
228.97388	8090
228.99509	8090
229.01631	8209
229.03754	8228
229.05875	8264
229.07997	8239
229.1012	8201
229.12241	8158
229.14363	8255
229.16484	8287
229.18607	8345
229.20728	8355
229.2285	8354
229.24973	8292
229.27094	8315
229.29216	8350
229.31337	8334
229.33458	8293
229.3558	8432
229.37701	8537
229.39824	8295
229.41945	8288
229.44067	8286
229.46188	8211
229.48309	8176
229.50432	8198
229.52553	8172
229.54674	8174
229.56795	8107
229.58917	8098
229.61038	8072
229.63159	8063
229.6528	8054
229.67403	7990
229.69524	8053
229.71645	8024
229.73766	7945
229.75887	7922
229.78008	7866
229.8013	7817
229.82251	7757
229.84372	7717
229.86493	7665
229.88614	7613
229.90735	7550
229.92856	7458
229.94977	7433
229.97098	7392
229.99219	7330
230.0134	7261
230.03461	7221
230.05582	7211
230.07703	7149
230.09824	7108
230.11943	7114
230.14064	7055
230.16185	7092
230.18306	7066
230.20427	6973
230.22548	6970
230.24667	6881
230.26788	6871
230.28909	6890
230.3103	6827
230.3315	6766
230.35271	6767
230.37392	6711
230.39511	6708
230.41632	6650
230.43753	6666
230.45872	6643
230.47993	6670
230.50114	6623
230.52234	6628
230.54355	6583
230.56474	6574
230.58595	6505
230.60715	6534
230.62836	6571
230.64955	6551
230.67076	6550
230.69196	6521
230.71317	6549
230.73436	6561
230.75557	6457
230.77676	6480
230.79796	6500
230.81917	6416
230.84036	6422
230.86156	6386
230.88277	6408
230.90396	6367
230.92516	6366
230.94637	6259
230.96756	6248
230.98875	6227
231.00995	6276
231.03114	6224
231.05235	6282
231.07355	6213
231.09474	6235
231.11594	6247
231.13713	6237
231.15833	6225
231.17952	6197
231.20071	6151
231.22192	6193
231.24312	6179
231.26431	6165
231.28551	6169
231.3067	6179
231.3279	6177
231.34909	6127
231.37027	6108
231.39146	6112
231.41266	6139
231.43385	6125
231.45505	6126
231.47624	6119
231.49744	6137
231.51863	6092
231.53983	6094
231.561	6033
231.5822	6028
231.60339	6007
231.62459	6032
231.64577	5998
231.66696	5973
231.68816	6006
231.70935	5939
231.73053	5900
231.75172	5909
231.77292	5924
231.7941	5930
231.81529	5951
231.83647	5938
231.85767	5887
231.87886	5804
231.90004	5846
231.92123	5864
231.94241	5832
231.96361	5818
231.98479	5830
232.00598	5744
232.02716	5737
232.04834	5698
232.06953	5764
232.09071	5673
232.11191	5714
232.13309	5707
232.15427	5717
232.17546	5749
232.19664	5727
232.21782	5755
232.23901	5655
232.26019	5637
232.28137	5645
232.30257	5629
232.32375	5644
232.34492	5625
232.3661	5592
232.38728	5562
232.40848	5565
232.42966	5581
232.45084	5530
232.47202	5582
232.49319	5581
232.51437	5537
232.53555	5528
232.55673	5509
232.57791	5492
232.59909	5494
232.62027	5469
232.64145	5475
232.66263	5459
232.68381	5461
232.70499	5441
232.72617	5391
232.74734	5407
232.76852	5357
232.7897	5340
232.81088	5406
232.83205	5427
232.85323	5398
232.8744	5388
232.89558	5369
232.91676	5331
232.93793	5314
232.95911	5239
232.98029	5215
233.00146	5214
233.02263	5184
233.04381	5161
233.06499	5188
233.08615	5199
233.10733	5182
233.12851	5142
233.14967	5134
233.17085	5206
233.19202	5121
233.2132	5162
233.23438	5187
233.25554	5227
233.27672	5175
233.29788	5165
233.31906	5193
233.34023	5188
233.36139	5214
233.38257	5187
233.40373	5171
233.42491	5137
233.44608	5178
233.46724	5108
233.48842	5146
233.50958	5052
233.53075	5146
233.55193	5081
233.57309	5174
233.59425	5156
233.61542	5157
233.6366	5113
233.65776	5109
233.67892	5110
233.70009	5096
233.72127	5131
233.74243	5141
233.7636	5148
233.78476	5135
233.80592	5145
233.82709	5121
233.84825	5095
233.86942	5128
233.89058	5068
233.91174	5094
233.93291	5092
233.95407	5032
233.97523	5041
233.9964	5075
234.01756	5101
234.03873	5059
234.05989	5072
234.08105	5005
234.10222	5046
234.12338	5015
234.14453	5004
234.1657	4991
234.18686	5000
234.20802	5022
234.22919	5030
234.25034	5088
234.2715	4998
234.29266	5030
234.31383	4967
234.33498	4950
234.35614	4954
234.3773	4945
234.39845	4904
234.41962	4951
234.44078	4880
234.46193	4886
234.48309	4888
234.50424	4855
234.52541	4875
234.54655	4901
234.56772	4896
234.58887	4874
234.61003	4873
234.63118	4857
234.65234	4838
234.67349	4819
234.69466	4838
234.71581	4806
234.73695	4753
234.75812	4832
234.77927	4813
234.80043	4810
234.82158	4799
234.84273	4810
234.86388	4775
234.88504	4798
234.90619	4814
234.92734	4789
234.94849	4807
234.96965	4757
234.9908	4783
235.01195	4768
235.0331	4743
235.05424	4786
235.07539	4738
235.09656	4738
235.11771	4709
235.13885	4761
235.16	4729
235.18115	4750
235.2023	4704
235.22345	4672
235.2446	4690
235.26575	4704
235.2869	4664
235.30804	4667
235.32919	4650
235.35034	4618
235.37148	4588
235.39262	4594
235.41377	4604
235.43492	4614
235.45607	4597
235.47722	4605
235.49835	4602
235.5195	4576
235.54065	4573
235.5618	4566
235.58293	4575
235.60408	4585
235.62523	4554
235.64638	4577
235.66751	4590
235.68866	4546
235.70981	4535
235.73094	4516
235.75209	4479
235.77322	4372
