Date and Time:                Wed Oct 26 16:15:49.000 2022
Software Version:             4.31.30023.0
Temperature (C):              -40
Model:                        DU940P_BU2
Data Type:                    Counts
Acquisition Mode:             Single Scan
Trigger Mode:                 Internal
Exposure Time (secs):         8.5
Readout Mode:                 Full Vertical Binning
Horizontal binning:           1
Extended Dynamic Range:       off
Horizontally flipped:         false
Vertical Shift Speed (usecs): 14.51
Pixel Readout Rate (MHz):     3
Baseline Clamp:               ON
Clock Amplitude:              Normal
Output Amplifier:             High Capacity
Serial Number:                23634
Pre-Amplifier Gain:           1.000000
Spurious Noise Filter Mode:   No Filter
Photon counted:               false
Data Averaging Filter Mode:   No Filter
SR500i:
Serial Number:                
Wavelength (nm):              214
Grating Groove Density (l/mm):1199.47
Grating Blaze:                500
Output Flipper Port:          Direct
Accessory Output Port 1:      Off
Accessory Output Port 2:      Off
Accessory Output Port 3:      Off
Accessory Input Port:         On



192.0349	10215
192.05646	9689
192.078	9090
192.09956	8193
192.12112	8327
192.14268	8356
192.16425	6657
192.18581	4824
192.20735	4317
192.22891	4295
192.25047	4765
192.27203	4437
192.29358	4935
192.31514	6285
192.3367	5693
192.35826	4661
192.37981	5768
192.40137	7006
192.42293	6492
192.44449	5008
192.46603	5244
192.48759	7394
192.50916	8675
192.5307	8353
192.55226	6461
192.57381	5097
192.59537	6520
192.61693	8483
192.63847	9449
192.66003	9392
192.68159	7934
192.70314	5908
192.7247	6350
192.74625	8600
192.76781	9914
192.78935	10210
192.81091	9865
192.83246	8974
192.85402	7290
192.87556	6707
192.89713	8643
192.91867	10225
192.94023	10674
192.96178	10815
192.98334	10718
193.00488	10238
193.02643	8745
193.04799	7543
193.06953	8608
193.09109	10353
193.11264	11052
193.13419	11200
193.15575	11280
193.17729	11294
193.19884	11021
193.2204	10092
193.24194	9029
193.26349	9266
193.28505	10593
193.30659	11244
193.32814	11419
193.34969	11550
193.37125	11621
193.39279	11526
193.41434	11415
193.43588	10932
193.45744	10153
193.47899	9970
193.50053	10796
193.52208	11431
193.54362	11603
193.56517	11686
193.58673	11703
193.60828	11749
193.62982	11717
193.65137	11637
193.67291	11166
193.69446	10395
193.716	10024
193.73755	10396
193.75909	11144
193.78064	10985
193.80219	10908
193.82375	11461
193.84529	11414
193.86684	10980
193.88838	11169
193.90993	11783
193.93147	11827
193.953	11253
193.97455	10584
193.99609	11145
194.01764	11793
194.03918	12063
194.06073	12028
194.08228	11660
194.10382	11406
194.12537	11964
194.14691	12227
194.16846	12250
194.18999	12210
194.21153	12034
194.23308	11532
194.25462	11500
194.27617	11946
194.29771	12163
194.31924	12346
194.34079	12381
194.36234	12349
194.38388	12140
194.40541	11809
194.42696	11879
194.4485	12036
194.47005	11364
194.49158	9528
194.51312	8506
194.53467	8271
194.5562	8863
194.57774	9116
194.59929	8169
194.62082	9720
194.64236	10562
194.66391	8878
194.68544	8572
194.70699	10695
194.72852	11465
194.75006	10105
194.77161	8419
194.79314	9530
194.81468	11372
194.83621	11894
194.85776	11100
194.87929	9331
194.90083	9158
194.92236	10992
194.94391	12049
194.96544	12242
194.98698	11828
195.00851	10465
195.03006	9581
195.05159	10578
195.07312	12045
195.09467	12468
195.1162	12533
195.13774	12324
195.15927	11480
195.1808	10565
195.20235	10769
195.22388	11982
195.24541	12578
195.26695	12749
195.28848	12679
195.31001	12622
195.33156	12289
195.35309	11607
195.37462	11412
195.39616	12070
195.41769	12718
195.43922	12959
195.46075	12924
195.48228	12941
195.50383	13017
195.52536	12810
195.54689	12436
195.56842	12089
195.58995	12317
195.6115	12974
195.63303	13298
195.65456	13352
195.67609	13355
195.69762	13328
195.71915	13356
195.74068	13306
195.76221	13010
195.78374	12772
195.80528	12672
195.82681	12766
195.84834	12894
195.86987	12859
195.8914	13034
195.91293	13021
195.93446	12919
195.95599	13163
195.97752	13267
195.99905	12894
196.02058	12731
196.0421	13043
196.06363	13377
196.08516	13411
196.10669	13085
196.12822	13263
196.14975	13541
196.17128	13537
196.19281	13551
196.21434	13346
196.23586	13121
196.25739	13311
196.27892	13499
196.30045	13545
196.32198	13594
196.34351	13711
196.36502	13543
196.38655	13536
196.40808	13759
196.42961	13899
196.45113	13900
196.47266	13902
196.49419	13809
196.5157	13700
196.53723	13572
196.55876	13688
196.58029	13858
196.60181	13869
196.62334	13978
196.64485	13943
196.66638	14000
196.68791	13988
196.70943	14050
196.73096	14041
196.75249	14109
196.774	14308
196.79553	14279
196.81705	14362
196.83858	14343
196.86009	14341
196.88162	14266
196.90314	14304
196.92467	14139
196.94618	13670
196.96771	13017
196.98923	12919
197.01076	12854
197.03227	13365
197.0538	13172
197.07532	13021
197.09683	13913
197.11836	13827
197.13988	13012
197.16141	13374
197.18292	14221
197.20444	14216
197.22597	13508
197.24748	13435
197.269	14193
197.29053	14660
197.31204	14670
197.33356	14145
197.35509	13664
197.3766	13901
197.39812	14557
197.41963	14802
197.44116	14819
197.46268	14547
197.48419	14066
197.50571	13959
197.52722	14368
197.54875	14801
197.57027	14794
197.59178	14801
197.6133	14631
197.63481	14390
197.65633	14244
197.67784	14294
197.69937	14738
197.72089	14956
197.7424	15018
197.76392	15157
197.78543	15124
197.80695	14883
197.82846	14726
197.84998	14604
197.87149	14724
197.89301	14866
197.91452	14936
197.93604	14935
197.95755	14904
197.97906	14840
198.00058	14806
198.02209	14727
198.04361	14713
198.06512	14695
198.08664	14900
198.10814	14818
198.12965	14780
198.15117	14751
198.17268	14831
198.1942	14956
198.21571	14922
198.23723	14849
198.25873	14889
198.28024	14877
198.30176	14902
198.32327	15038
198.34479	15137
198.36629	15240
198.3878	15273
198.40932	15060
198.43083	15073
198.45233	15104
198.47385	15103
198.49536	15232
198.51686	15125
198.53838	15192
198.55989	15336
198.58139	15359
198.60291	15448
198.62442	15477
198.64592	15436
198.66743	15384
198.68895	15337
198.71045	15532
198.73196	15611
198.75346	15532
198.77498	15489
198.79648	15551
198.81799	15508
198.83949	15488
198.86101	15545
198.88251	15579
198.90402	15614
198.92552	15633
198.94704	15576
198.96854	15620
198.99005	15669
199.01155	15602
199.03307	15614
199.05457	15627
199.07607	15689
199.09758	15709
199.11908	15749
199.14059	15807
199.16209	15856
199.18359	15874
199.20511	15900
199.22661	16026
199.24811	16047
199.26961	16060
199.29112	16146
199.31262	16070
199.33412	16018
199.35564	16011
199.37714	15961
199.39864	15963
199.42014	16143
199.44164	16123
199.46315	16233
199.48465	16218
199.50615	16263
199.52765	16223
199.54915	16205
199.57065	16213
199.59216	16016
199.61366	15962
199.63516	15908
199.65666	16109
199.67816	16074
199.69966	16005
199.72116	16226
199.74266	16242
199.76416	16212
199.78566	16331
199.80716	16570
199.82866	16559
199.85016	16402
199.87166	16366
199.89316	16523
199.91466	16666
199.93616	16686
199.95766	16684
199.97916	16638
200.00066	16665
200.02216	16873
200.04366	16875
200.06516	16917
200.08664	16781
200.10814	16807
200.12964	16742
200.15114	16835
200.17264	16932
200.19414	16973
200.21562	16963
200.23712	16890
200.25862	16846
200.28012	16756
200.30161	16682
200.3231	16776
200.3446	16914
200.3661	16945
200.38759	16826
200.40909	16912
200.43059	16937
200.45207	16948
200.47357	16994
200.49507	16960
200.51656	17090
200.53806	17067
200.55956	17102
200.58104	17097
200.60254	17087
200.62402	17035
200.64552	17091
200.66702	17087
200.68851	17131
200.71001	17214
200.73149	17204
200.75299	17327
200.77448	17212
200.79597	17166
200.81746	17202
200.83896	17142
200.86044	17191
200.88194	17128
200.90343	17181
200.92491	17313
200.94641	17343
200.9679	17366
200.9894	17229
201.01088	17219
201.03236	17277
201.05386	17309
201.07535	17394
201.09683	17507
201.11833	17516
201.13982	17596
201.1613	17524
201.1828	17607
201.20428	17657
201.22577	17639
201.24725	17711
201.26875	17717
201.29024	17686
201.31172	17717
201.33321	17701
201.35469	17689
201.37619	17772
201.39767	17895
201.41916	17912
201.44064	17968
201.46213	18041
201.48361	18128
201.50511	18149
201.5266	18139
201.54808	18064
201.56956	18092
201.59105	18205
201.61253	18261
201.63402	18421
201.6555	18436
201.67699	18337
201.69847	18316
201.71996	18349
201.74144	18355
201.76292	18465
201.78441	18467
201.80589	18558
201.82738	18598
201.84886	18450
201.87035	18515
201.89183	18639
201.9133	18629
201.93478	18546
201.95627	18626
201.97775	18673
201.99924	18644
202.02072	18642
202.04221	18624
202.06367	18545
202.08516	18570
202.10664	18656
202.12813	18768
202.14961	18960
202.17108	18877
202.19257	18872
202.21405	18874
202.23553	18908
202.257	18799
202.27849	18745
202.29997	18701
202.32144	18660
202.34293	18705
202.36441	18655
202.38588	18679
202.40736	18728
202.42883	18781
202.45032	18631
202.4718	18627
202.49327	18726
202.51476	18681
202.53622	18720
202.55771	18769
202.57918	18892
202.60066	18998
202.62213	18989
202.64362	19036
202.66508	19180
202.68657	19157
202.70804	19100
202.72952	19110
202.75099	19200
202.77248	19148
202.79395	19172
202.81543	19191
202.8369	19126
202.85837	19233
202.87985	19180
202.90132	19264
202.92279	19474
202.94427	19661
202.96574	19567
202.98721	19582
203.0087	19558
203.03017	19571
203.05164	19631
203.0731	19733
203.09459	19868
203.11606	20058
203.13753	19963
203.159	20008
203.18048	19958
203.20195	19947
203.22342	19949
203.24489	19866
203.26636	20025
203.28783	19931
203.30931	19801
203.33078	19877
203.35225	19884
203.37372	19956
203.39519	19877
203.41666	19769
203.43813	19792
203.45959	19802
203.48106	19810
203.50253	19898
203.524	19934
203.54547	19968
203.56694	19971
203.58841	20155
203.60988	20150
203.63135	20098
203.65282	20131
203.67429	20153
203.69576	20132
203.71722	20099
203.73869	20059
203.76016	20034
203.78163	20051
203.80309	19939
203.82455	19856
203.84602	19923
203.86749	19986
203.88896	20045
203.91043	19990
203.93188	20023
203.95335	19990
203.97482	20002
203.99629	19962
204.01775	20000
204.03922	20177
204.06068	20242
204.08215	20206
204.10361	20245
204.12508	20357
204.14655	20169
204.168	20132
204.18947	20177
204.21094	20128
204.23239	20216
204.25386	20181
204.27531	20178
204.29678	20084
204.31825	20025
204.33971	20084
204.36118	20259
204.38263	20355
204.4041	20371
204.42555	20401
204.44702	20368
204.46848	20364
204.48994	20468
204.5114	20526
204.53287	20571
204.55432	20632
204.57579	20655
204.59724	20775
204.6187	20679
204.64017	20732
204.66162	20752
204.68309	20765
204.70454	20840
204.726	20894
204.74747	20876
204.76892	20883
204.79037	20904
204.81184	20961
204.8333	20994
204.85475	20861
204.87621	20897
204.89767	20917
204.91913	20965
204.94058	20948
204.96204	21109
204.98351	21184
205.00496	21192
205.02641	21301
205.04787	21346
205.06932	21278
205.09077	21321
205.11224	21383
205.1337	21418
205.15515	21477
205.17661	21376
205.19806	21414
205.21951	21473
205.24097	21532
205.26242	21555
205.28387	21593
205.30533	21545
205.32678	21667
205.34824	21644
205.36969	21512
205.39114	21397
205.4126	21403
205.43405	21510
205.45551	21528
205.47696	21630
205.49841	21617
205.51987	21505
205.54132	21523
205.56277	21686
205.58421	21765
205.60567	21804
205.62712	21851
205.64857	21795
205.67003	21910
205.69148	21906
205.71292	21994
205.73438	22014
205.75583	22104
205.77728	22152
205.79872	22134
205.82018	22202
205.84163	22422
205.86308	22535
205.88452	22541
205.90598	22557
205.92743	22631
205.94887	22699
205.97032	22757
205.99178	22891
206.01321	22847
206.03467	22874
206.05611	22859
206.07756	22795
206.09901	22686
206.12045	22682
206.14191	22674
206.16335	22772
206.1848	22783
206.20624	22702
206.22769	22598
206.24913	22789
206.27058	22799
206.29202	22850
206.31348	22750
206.33492	22863
206.35637	22851
206.37781	22780
206.39925	22705
206.4207	22743
206.44214	22749
206.46359	22808
206.48503	22743
206.50647	22870
206.52792	22998
206.54936	23005
206.5708	23016
206.59224	22949
206.61369	22976
206.63513	22940
206.65657	22880
206.67802	22821
206.69946	22767
206.7209	22837
206.74234	22785
206.76378	22833
206.78523	22849
206.80667	22765
206.82811	22675
206.84955	22658
206.87099	22612
206.89243	22582
206.91386	22735
206.93532	22961
206.95676	23043
206.9782	23000
206.99963	22940
207.02107	22989
207.04251	23070
207.06395	23019
207.08539	23085
207.10683	23056
207.12827	22994
207.1497	22916
207.17114	22858
207.19258	22963
207.21402	23069
207.23546	23032
207.2569	23073
207.27832	23219
207.29976	23329
207.3212	23346
207.34264	23223
207.36407	23237
207.38551	23219
207.40695	23168
207.42838	23245
207.44981	23341
207.47125	23652
207.49269	23678
207.51413	23480
207.53555	23477
207.55699	23365
207.57843	23527
207.59985	23545
207.62129	23675
207.64273	23692
207.66417	23548
207.68559	23498
207.70703	23583
207.72845	23632
207.74989	23567
207.77133	23463
207.79276	23365
207.81419	23590
207.83562	23483
207.85706	23432
207.87849	23387
207.89992	23432
207.92136	23495
207.94278	23514
207.96422	23754
207.98564	23598
208.00708	23652
208.0285	23748
208.04994	23732
208.07137	23728
208.09279	23504
208.11423	23559
208.13565	23590
208.15709	23525
208.17851	23497
208.19994	23504
208.22137	23554
208.2428	23623
208.26422	23587
208.28566	23616
208.30708	23591
208.32851	23605
208.34995	23602
208.37137	23687
208.39279	23886
208.41422	24003
208.43565	24031
208.45708	23907
208.4785	23951
208.49992	23943
208.52135	23770
208.54279	23831
208.56421	23782
208.58563	23904
208.60706	23897
208.62848	23829
208.6499	23760
208.67133	23711
208.69275	23701
208.71417	23790
208.7356	24013
208.75703	24002
208.77846	24163
208.79988	24083
208.8213	24049
208.84273	23955
208.86415	23992
208.88556	24105
208.90698	24259
208.92841	24545
208.94983	24443
208.97125	24538
208.99268	24417
209.0141	24476
209.03552	24537
209.05695	24521
209.07837	24450
209.09978	24472
209.1212	24365
209.14262	24218
209.16405	24311
209.18547	24230
209.20688	24265
209.2283	24260
209.24973	24174
209.27115	24122
209.29256	24168
209.31398	24217
209.3354	24318
209.35683	24358
209.37823	24376
209.39966	24489
209.42108	24668
209.44249	24619
209.46391	24626
209.48532	24498
209.50674	24518
209.52817	24553
209.54958	24465
209.571	24431
209.59241	24482
209.61383	24432
209.63524	24221
209.65666	24273
209.67807	24405
209.69949	24531
209.7209	24603
209.74232	24647
209.76373	24644
209.78516	24612
209.80656	24517
209.82797	24545
209.8494	24669
209.8708	24671
209.89223	24759
209.91364	24848
209.93504	24922
209.95647	24917
209.97787	24709
209.99928	24703
210.02071	24725
210.04211	24777
210.06352	24783
210.08493	24739
210.10635	24778
210.12776	24634
210.14917	24699
210.17058	24635
210.19199	24866
210.21341	25011
210.23482	24993
210.25623	24880
210.27763	24924
210.29904	24934
210.32045	24915
210.34186	24902
210.36327	24992
210.38469	25113
210.4061	25044
210.42751	25118
210.44891	25154
210.47032	25271
210.49173	25231
210.51314	25329
210.53455	25411
210.55595	25458
210.57736	25426
210.59877	25462
210.62018	25560
210.64157	25641
210.66298	25597
210.68439	25401
210.7058	25534
210.7272	25498
210.74861	25436
210.77002	25577
210.79143	25635
210.81282	25607
210.83423	25667
210.85564	25683
210.87704	25681
210.89844	25779
210.91985	25778
210.94125	25761
210.96266	25776
210.98405	25763
211.00546	25770
211.02687	25736
211.04826	25759
211.06967	25825
211.09108	25694
211.11247	25861
211.13388	25984
211.15529	26012
211.17668	25905
211.19809	25677
211.21948	25492
211.24089	25459
211.2623	25397
211.28369	25467
211.3051	25507
211.32649	25588
211.3479	25408
211.36929	25448
211.3907	25520
211.41209	25594
211.43349	25634
211.4549	25655
211.47629	25658
211.4977	25714
211.51909	25646
211.54048	25656
211.56189	25735
211.58328	25737
211.60469	25733
211.62608	25713
211.64748	25959
211.66887	26187
211.69028	26207
211.71167	26122
211.73306	25967
211.75447	25927
211.77586	26096
211.79726	26049
211.81865	26179
211.84004	26283
211.86145	26281
211.88284	26149
211.90424	26078
211.92563	26091
211.94702	26100
211.96841	26151
211.98981	26245
212.01122	26152
212.03261	26121
212.054	26093
212.07539	26117
212.09679	26179
212.11818	26147
212.13957	26212
212.16096	26245
212.18236	26219
212.20375	26153
212.22514	26061
212.24654	26162
212.26793	26203
212.28932	26376
212.3107	26395
212.33209	26523
212.35349	26592
212.37488	26706
212.39627	26728
212.41766	26716
212.43906	26654
212.46043	26463
212.48183	26384
212.50322	26464
212.52461	26390
212.54601	26305
212.56738	26443
212.58878	26367
212.61017	26412
212.63156	26351
212.65294	26402
212.67433	26341
212.69572	26232
212.7171	26252
212.73849	26405
212.75989	26684
212.78127	26754
212.80266	26717
212.82404	26724
212.84543	26585
212.86681	26566
212.8882	26598
212.90959	26620
212.93097	26728
212.95236	26743
212.97374	26825
212.99513	26702
213.01651	26672
213.0379	26784
213.05928	26733
213.08066	26930
213.10205	27121
213.12343	27358
213.14482	27332
213.1662	27183
213.18758	27172
213.20897	27147
213.23035	27087
213.25172	27175
213.27312	27371
213.29449	27529
213.31587	27610
213.33727	27451
213.35864	27387
213.38002	27407
213.4014	27343
213.42279	27380
213.44417	27392
213.46555	27290
213.48692	27103
213.5083	27058
213.52969	26940
213.55107	26980
213.57245	26812
213.59383	26883
213.6152	27013
213.63658	27074
213.65796	27103
213.67934	27018
213.70071	27033
213.72209	27048
213.74347	27191
213.76485	27362
213.78622	27534
213.8076	27542
213.82898	27559
213.85036	27739
213.87173	27875
213.89311	27836
213.91449	27638
213.93587	27525
213.95724	27512
213.97862	27313
214	27395
214.02138	27580
214.04274	27651
214.06412	27820
214.08549	27875
214.10687	27783
214.12825	27824
214.14961	27789
214.17099	27846
214.19237	27892
214.21375	28104
214.23511	28122
214.25648	28140
214.27786	28082
214.29922	28285
214.3206	28086
214.34198	28098
214.36334	28028
214.38472	27967
214.4061	27981
214.42746	27913
214.44884	27815
214.4702	27842
214.49158	27784
214.51294	27878
214.53432	28006
214.55568	28123
214.57706	28180
214.59842	28223
214.6198	28230
214.64116	28142
214.66254	28144
214.6839	28262
214.70528	28364
214.72664	28501
214.74802	28442
214.76938	28507
214.79074	28454
214.81212	28520
214.83348	28552
214.85484	28477
214.87622	28539
214.89758	28529
214.91895	28430
214.94031	28457
214.96169	28394
214.98305	28393
215.00441	28447
215.02577	28299
215.04715	28249
215.06851	28282
215.08987	28368
215.11124	28300
215.1326	28325
215.15396	28284
215.17534	28378
215.1967	28590
215.21806	28540
215.23943	28553
215.26079	28554
215.28215	28502
215.30351	28417
215.32487	28438
215.34624	28340
215.3676	28353
215.38896	28411
215.41032	28423
215.43169	28378
215.45305	28218
215.47441	28303
215.49577	28299
215.51714	28200
215.5385	28179
215.55986	28125
215.58121	28121
215.60257	27904
215.62393	27779
215.64529	27690
215.66666	27881
215.68802	27789
215.70937	27722
215.73073	27784
215.75209	27833
215.77345	27750
215.7948	27638
215.81616	27639
215.83752	27714
215.85889	27658
215.88023	27742
215.9016	27777
215.92296	27819
215.94431	27779
215.96567	27714
215.98701	27844
216.00838	27947
216.02974	28122
216.05109	28132
216.07245	27941
216.0938	27963
216.11516	27850
216.13651	27891
216.15787	27855
216.17921	28041
216.20058	28161
216.22192	28102
216.24329	28086
216.26463	28133
216.286	28303
216.30734	28277
216.32869	28305
216.35005	28341
216.3714	28305
216.39275	28274
216.41411	28442
216.43546	28463
216.4568	28489
216.47816	28356
216.49951	28159
216.52086	28244
216.54222	28176
216.56357	28145
216.58492	28217
216.60626	28297
216.62761	28218
216.64897	28298
216.67032	28403
216.69167	28412
216.71301	28384
216.73436	28430
216.75571	28538
216.77705	28539
216.79842	28557
216.81976	28375
216.84111	28297
216.86246	28368
216.8838	28387
216.90515	28352
216.9265	28502
216.94785	28678
216.96919	28687
216.99054	28462
217.01189	28355
217.03323	28180
217.05458	28210
217.07591	28233
217.09726	28255
217.11861	28333
217.13995	28267
217.1613	28252
217.18265	28312
217.20399	28395
217.22533	28588
217.24667	28529
217.26802	28453
217.28937	28531
217.31071	28408
217.33205	28444
217.35339	28375
217.37474	28352
217.39609	28412
217.41742	28286
217.43877	28454
217.46011	28689
217.48145	28705
217.50279	28719
217.52412	28549
217.54547	28376
217.56682	28403
217.58815	28521
217.6095	28623
217.63083	28743
217.65218	28874
217.67351	28829
217.69485	28798
217.71619	28605
217.73753	28621
217.75887	28815
217.78021	28811
217.80154	28821
217.82289	28798
217.84422	28654
217.86557	28601
217.8869	28576
217.90823	28496
217.92958	28482
217.95091	28487
217.97224	28469
217.99359	28590
218.01492	28424
218.03625	28379
218.05759	28393
218.07893	28456
218.10027	28433
218.1216	28630
218.14293	28685
218.16428	28503
218.18561	28530
218.20694	28615
218.22827	28601
218.2496	28459
218.27094	28230
218.29228	28109
218.31361	28226
218.33495	28143
218.35628	28058
218.37761	28222
218.39894	28136
218.42027	28196
218.4416	28085
218.46294	27952
218.48427	27956
218.5056	27861
218.52693	27925
218.54826	28239
218.5696	28412
218.59093	28501
218.61226	28465
218.63359	28291
218.65492	28310
218.67624	28119
218.69757	28113
218.7189	28166
218.74023	28148
218.76157	28219
218.7829	28160
218.80421	28095
218.82555	28127
218.84688	28102
218.86821	28229
218.88953	28330
218.91086	28479
218.93219	28557
218.95351	28558
218.97484	28309
218.99617	28259
219.01749	28377
219.03882	28544
219.06015	28722
219.08147	28959
219.1028	29094
219.12411	28962
219.14545	28998
219.16678	28918
219.1881	28956
219.20943	28908
219.23074	28942
219.25208	29006
219.27339	28965
219.29472	28699
219.31604	28798
219.33736	28703
219.35869	28706
219.38	28599
219.40134	28507
219.42265	28630
219.44397	28627
219.4653	28624
219.48662	28661
219.50793	28668
219.52927	28702
219.55058	28793
219.5719	28999
219.59323	29028
219.61455	28967
219.63586	29041
219.65718	28963
219.6785	28842
219.69983	28790
219.72115	28722
219.74246	28742
219.76378	28675
219.7851	28551
219.80641	28527
219.82773	28604
219.84906	28752
219.87038	28815
219.89169	28880
219.91301	28955
219.93433	28779
219.95564	28764
219.97696	28697
219.99828	28756
220.01959	28807
220.04091	28908
220.06223	28933
220.08354	28952
220.10486	29130
220.12617	29023
220.14748	28935
220.16879	28924
220.19011	28913
220.21143	28926
220.23274	28923
220.25406	28939
220.27536	28928
220.29668	28895
220.31799	28861
220.33931	29147
220.36063	29251
220.38193	29195
220.40324	29159
220.42456	29190
220.44586	29229
220.46718	29178
220.48849	29268
220.5098	29330
220.53111	29381
220.55243	29432
220.57373	29354
220.59505	29477
220.61636	29486
220.63766	29450
220.65898	29382
220.68028	29433
220.7016	29431
220.7229	29484
220.74422	29390
220.76552	29483
220.78683	29348
220.80814	29388
220.82945	29208
220.85075	29105
220.87206	29088
220.89337	29158
220.91467	29237
220.93599	29298
220.95729	29191
220.97859	29203
220.99991	29206
221.02121	29315
221.04251	29245
221.06381	29222
221.08513	29328
221.10643	29327
221.12773	29204
221.14903	29261
221.17035	29185
221.19165	29257
221.21295	29261
221.23425	29176
221.25555	29062
221.27686	29202
221.29817	29263
221.31947	29220
221.34077	29043
221.36208	29033
221.38338	28998
221.40468	28788
221.42598	28601
221.44728	28435
221.46858	28556
221.48988	28479
221.51118	28499
221.53249	28669
221.55379	28686
221.57509	28498
221.59639	28358
221.61769	28268
221.63899	28290
221.66028	28375
221.68158	28502
221.70288	28562
221.72418	28570
221.74548	28587
221.76678	28543
221.78807	28691
221.80937	28695
221.83067	28759
221.85197	28817
221.87326	28776
221.89456	28701
221.91586	28562
221.93716	28371
221.95845	28455
221.97975	28505
222.00105	28393
222.02234	28448
222.04364	28510
222.06493	28763
222.08623	28727
222.10753	28678
222.12881	28754
222.15012	28698
222.1714	28760
222.1927	28837
222.21399	28967
222.23529	29029
222.25658	28899
222.27788	28753
222.29916	28730
222.32045	28689
222.34175	28630
222.36304	28716
222.38434	28921
222.40562	28960
222.42691	28703
222.44821	28797
222.4695	28794
222.49078	28675
222.51208	28794
222.53337	28932
222.55466	28869
222.57594	28845
222.59724	28786
222.61853	28718
222.63982	28693
222.6611	28740
222.68239	28839
222.70369	28762
222.72498	28923
222.74626	29025
222.76755	28914
222.78883	28736
222.81012	28448
222.83141	28433
222.85269	28456
222.87398	28342
222.89526	28435
222.91656	28350
222.93785	28375
222.95914	28315
222.98041	28342
223.00169	28353
223.02298	28384
223.04427	28328
223.06555	28345
223.08684	28251
223.10812	28195
223.12941	28106
223.1507	28128
223.17198	28060
223.19325	27961
223.21454	27958
223.23582	28191
223.25711	28412
223.2784	28453
223.29967	28258
223.32095	28237
223.34224	28126
223.36353	28115
223.3848	28142
223.40608	28313
223.42737	28511
223.44864	28662
223.46992	28716
223.4912	28719
223.51248	28707
223.53377	28768
223.55504	28708
223.57632	28734
223.5976	28868
223.61888	28955
223.64015	28883
223.66144	28804
223.68271	28945
223.70399	28971
223.72527	28752
223.74655	28807
223.76782	28725
223.78911	28622
223.81038	28654
223.83165	28658
223.85294	28720
223.87421	28770
223.89549	28885
223.91676	28895
223.93803	29038
223.9593	28935
223.98059	28996
224.00186	29162
224.02313	29091
224.04442	29040
224.06569	28951
224.08696	28865
224.10823	28967
224.1295	28816
224.15077	28722
224.17206	28799
224.19333	28959
224.2146	28825
224.23587	28797
224.25714	28775
224.27841	28747
224.29968	28684
224.32095	28754
224.34222	28954
224.36349	29210
224.38477	29192
224.40604	29114
224.42731	29064
224.44858	28986
224.46985	28960
224.49112	29097
224.51239	29110
224.53366	29091
224.55493	29257
224.5762	29166
224.59747	29175
224.61873	29096
224.64	28995
224.66127	28933
224.68254	29198
224.70381	29426
224.72507	29509
224.74634	29433
224.76761	29335
224.78888	29325
224.81013	29378
224.83141	29525
224.85268	29676
224.87393	29906
224.8952	29928
224.91647	29796
224.93773	29743
224.959	29871
224.98026	29823
225.00153	29870
225.02278	29820
225.04405	29856
225.06532	29768
225.08658	29682
225.10785	29657
225.1291	29621
225.15036	29528
225.17163	29396
225.19289	29542
225.21416	29628
225.23541	29525
225.25668	29632
225.27794	29763
225.29919	29619
225.32047	29752
225.34172	29916
225.36298	30146
225.38425	30121
225.4055	30131
225.42676	30142
225.44801	30056
225.46928	30076
225.49054	29872
225.5118	30014
225.53305	30133
225.55431	30035
225.57558	29809
225.59683	29740
225.61809	29865
225.63934	29919
225.6606	29887
225.68185	30012
225.70311	29986
225.72437	29921
225.74562	29821
225.76688	29767
225.78813	29843
225.80939	29959
225.83064	29922
225.8519	29949
225.87315	30045
225.89441	30051
225.91566	29804
225.93692	29883
225.95818	29963
225.97943	29931
226.00069	30051
226.02194	30149
226.04318	30141
226.06444	30112
226.08569	29954
226.10695	29987
226.1282	30100
226.14944	30142
226.1707	30174
226.19196	30205
226.21321	29986
226.23445	29991
226.25571	30003
226.27696	30108
226.2982	30262
226.31946	30404
226.34071	30300
226.36195	30300
226.38321	30410
226.40445	30487
226.4257	30497
226.44695	30512
226.4682	30497
226.48946	30576
226.5107	30503
226.53195	30535
226.55319	30665
226.57443	30776
226.59569	30561
226.61693	30533
226.63818	30401
226.65942	30433
226.68066	30478
226.70192	30615
226.72316	30807
226.74442	30593
226.76566	30695
226.7869	30766
226.80814	30990
226.82939	31008
226.85063	30901
226.87187	30883
226.89311	31009
226.91437	30946
226.93561	30730
226.95685	30735
226.97809	30756
226.99933	30682
227.02058	30607
227.04182	30584
227.06306	30827
227.0843	30811
227.10555	31058
227.12679	30897
227.14803	30967
227.16927	30824
227.19051	30628
227.21175	30542
227.23299	30588
227.25423	30545
227.27547	30558
227.29671	30616
227.31795	30804
227.33919	30842
227.36043	30752
227.38167	30880
227.40289	30982
227.42413	30840
227.44537	30888
227.46661	30954
227.48785	31274
227.50908	31254
227.53032	31311
227.55156	31286
227.5728	31395
227.59402	31587
227.61526	31725
227.63651	31691
227.65775	31753
227.67897	31706
227.70021	31589
227.72144	31439
227.74268	31432
227.76392	31363
227.78514	31469
227.80638	31504
227.82761	31811
227.84885	31985
227.87007	31853
227.89131	31925
227.91254	31983
227.93378	32150
227.955	32217
227.97624	32377
227.99747	32328
228.01871	32562
228.03993	32501
228.06117	32485
228.0824	32467
228.10362	32359
228.12486	32355
228.14609	32444
228.16731	32641
228.18855	32826
228.20978	32675
228.231	32977
228.25223	32941
228.27347	33252
228.29469	33260
228.31592	33423
228.33714	33391
228.35837	33561
228.37959	33431
228.40083	33569
228.42206	33548
228.44328	33624
228.46451	33847
228.48573	33880
228.50696	34231
228.52818	34255
228.54941	34221
228.57063	34229
228.59186	34179
228.61308	34065
228.63431	34235
228.65553	34412
228.67676	34430
228.69798	34774
228.71921	34813
228.74043	35033
228.76166	34956
228.78287	35231
228.80409	35081
228.82532	35290
228.84654	35340
228.86777	35397
228.88899	35557
228.9102	35831
228.93143	35784
228.95265	35490
228.97388	35711
228.99509	35684
229.01631	35941
229.03754	36286
229.05875	36505
229.07997	36314
229.1012	36425
229.12241	36522
229.14363	36607
229.16484	36902
229.18607	36838
229.20728	37414
229.2285	37369
229.24973	37399
229.27094	37401
229.29216	37502
229.31337	37646
229.33458	37596
229.3558	37766
229.37701	37736
229.39824	37793
229.41945	37797
229.44067	37645
229.46188	37698
229.48309	37763
229.50432	37422
229.52553	37484
229.54674	37576
229.56795	37491
229.58917	37414
229.61038	37391
229.63159	37522
229.6528	37235
229.67403	37475
229.69524	37374
229.71645	37425
229.73766	36995
229.75887	37157
229.78008	36875
229.8013	36930
229.82251	36723
229.84372	36443
229.86493	36245
229.88614	36251
229.90735	35882
229.92856	35684
229.94977	35507
229.97098	35685
229.99219	35404
230.0134	35141
230.03461	35076
230.05582	34873
230.07703	34781
230.09824	34530
230.11943	34657
230.14064	34623
230.16185	34629
230.18306	34604
230.20427	34526
230.22548	34273
230.24667	34031
230.26788	34020
230.28909	33991
230.3103	33704
230.3315	33860
230.35271	33721
230.37392	33518
230.39511	33450
230.41632	33332
230.43753	33199
230.45872	33377
230.47993	33509
230.50114	33546
230.52234	33528
230.54355	33421
230.56474	33358
230.58595	33341
230.60715	33234
230.62836	33419
230.64955	33497
230.67076	33587
230.69196	33534
230.71317	33449
230.73436	33711
230.75557	33688
230.77676	33629
230.79796	33621
230.81917	33514
230.84036	33449
230.86156	33363
230.88277	33472
230.90396	33368
230.92516	33298
230.94637	33160
230.96756	33015
230.98875	32992
231.00995	33191
231.03114	33004
231.05235	33293
231.07355	33356
231.09474	33133
231.11594	33240
231.13713	33522
231.15833	33423
231.17952	33326
231.20071	33466
231.22192	33516
231.24312	33493
231.26431	33505
231.28551	33484
231.3067	33616
231.3279	33627
231.34909	33414
231.37027	33496
231.39146	33552
231.41266	33559
231.43385	33598
231.45505	33813
231.47624	33722
231.49744	33674
231.51863	33660
231.53983	33687
231.561	33601
231.5822	33638
231.60339	33712
231.62459	33789
231.64577	33736
231.66696	33593
231.68816	33768
231.70935	33440
231.73053	33438
231.75172	33408
231.77292	33671
231.7941	33818
231.81529	34021
231.83647	33844
231.85767	33776
231.87886	33534
231.90004	33772
231.92123	33670
231.94241	33850
231.96361	33735
231.98479	33766
232.00598	33511
232.02716	33565
232.04834	33587
232.06953	33416
232.09071	33637
232.11191	33517
232.13309	33678
232.15427	33681
232.17546	33923
232.19664	33783
232.21782	33811
232.23901	33619
232.26019	33630
232.28137	33663
232.30257	33680
232.32375	33712
232.34492	33722
232.3661	33712
232.38728	33579
232.40848	33591
232.42966	33578
232.45084	33749
232.47202	33800
232.49319	33893
232.51437	33944
232.53555	33679
232.55673	33831
232.57791	33759
232.59909	33890
232.62027	33905
232.64145	33807
232.66263	33711
232.68381	33983
232.70499	33791
232.72617	33731
232.74734	33626
232.76852	33610
232.7897	33803
232.81088	33758
232.83205	33934
232.85323	34144
232.8744	34147
232.89558	34004
232.91676	33765
232.93793	33580
232.95911	33547
232.98029	33328
233.00146	33338
233.02263	33339
233.04381	33386
233.06499	33202
233.08615	33509
233.10733	33460
233.12851	33579
233.14967	33571
233.17085	33841
233.19202	33403
233.2132	33769
233.23438	33863
233.25554	34220
233.27672	34157
233.29788	34100
233.31906	34176
233.34023	34330
233.36139	34348
233.38257	34567
233.40373	34456
233.42491	34521
233.44608	34556
233.46724	34379
233.48842	34483
233.50958	34582
233.53075	34629
233.55193	34654
233.57309	34728
233.59425	34928
233.61542	34886
233.6366	34951
233.65776	34906
233.67892	35010
233.70009	35000
233.72127	35286
233.74243	35361
233.7636	35377
233.78476	35453
233.80592	35549
233.82709	35537
233.84825	35525
233.86942	35569
233.89058	35679
233.91174	35766
233.93291	35606
233.95407	35733
233.97523	35478
233.9964	35666
234.01756	35953
234.03873	35834
234.05989	35696
234.08105	36022
234.10222	35729
234.12338	35880
234.14453	35828
234.1657	35764
234.18686	35881
234.20802	36221
234.22919	36210
234.25034	36440
234.2715	36181
234.29266	36664
234.31383	36547
234.33498	36099
234.35614	36288
234.3773	36155
234.39845	36232
234.41962	36246
234.44078	36376
234.46193	36372
234.48309	36252
234.50424	36267
234.52541	36493
234.54655	36755
234.56772	36747
234.58887	36373
234.61003	36552
234.63118	36549
234.65234	36641
234.67349	36676
234.69466	36538
234.71581	36505
234.73695	36599
234.75812	36712
234.77927	36561
234.80043	36771
234.82158	36789
234.84273	36603
234.86388	36899
234.88504	36710
234.90619	37012
234.92734	36946
234.94849	37304
234.96965	37133
234.9908	37237
235.01195	37243
235.0331	37212
235.05424	37395
235.07539	37221
235.09656	37507
235.11771	37228
235.13885	37558
235.16	37533
235.18115	37551
235.2023	37532
235.22345	37721
235.2446	37514
235.26575	37714
235.2869	37483
235.30804	37540
235.32919	37558
235.35034	37524
235.37148	37499
235.39262	37626
235.41377	37560
235.43492	37874
235.45607	37658
235.47722	37837
235.49835	37999
235.5195	37611
235.54065	38033
235.5618	37733
235.58293	38102
235.60408	38134
235.62523	38095
235.64638	38226
235.66751	38287
235.68866	38075
235.70981	38150
235.73094	37999
235.75209	37483
235.77322	35991
