Date and Time:                Mon Jan 30 17:18:21.000 2023
Software Version:             4.31.30023.0
Temperature (C):              -40
Model:                        DU940P_BU2
Data Type:                    Counts
Acquisition Mode:             Single Scan
Trigger Mode:                 Internal
Exposure Time (secs):         40
Readout Mode:                 Full Vertical Binning
Horizontal binning:           1
Extended Dynamic Range:       off
Horizontally flipped:         false
Vertical Shift Speed (usecs): 14.51
Pixel Readout Rate (MHz):     3
Baseline Clamp:               ON
Clock Amplitude:              Normal
Output Amplifier:             High Capacity
Serial Number:                23634
Pre-Amplifier Gain:           1.000000
Spurious Noise Filter Mode:   No Filter
Photon counted:               false
Data Averaging Filter Mode:   No Filter
SR500i:
Serial Number:                
Wavelength (nm):              225
Grating Groove Density (l/mm):1199.47
Grating Blaze:                500
Output Flipper Port:          Direct
Accessory Output Port 1:      Off
Accessory Output Port 2:      Off
Accessory Output Port 3:      Off
Accessory Input Port:         On



203.08546	6366
203.10698	6064
203.12848	6105
203.14999	6108
203.17151	6119
203.19302	6228
203.21452	6271
203.23604	6274
203.25755	6265
203.27905	6282
203.30057	6257
203.32208	6269
203.34358	6297
203.3651	6340
203.38661	6375
203.40811	6425
203.42963	6465
203.45113	6489
203.47264	6571
203.49416	6597
203.51566	6624
203.53717	6620
203.55867	6735
203.58018	6744
203.60168	6755
203.6232	6819
203.6447	6862
203.66621	6905
203.68771	6941
203.70923	6990
203.73073	7012
203.75224	7074
203.77374	7113
203.79526	7111
203.81676	7219
203.83827	7238
203.85977	7246
203.88127	7314
203.90279	7374
203.92429	7376
203.94579	7426
203.9673	7443
203.9888	7459
204.01031	7449
204.03181	7515
204.05331	7547
204.07481	7615
204.09633	7661
204.11783	7716
204.13933	7738
204.16084	7819
204.18234	7787
204.20384	7838
204.22534	7932
204.24684	7992
204.26836	8038
204.28986	8033
204.31136	8129
204.33286	8169
204.35435	8205
204.37587	8219
204.39737	8249
204.41887	8294
204.44037	8355
204.46187	8342
204.48337	8403
204.50487	8348
204.52637	8498
204.54787	8470
204.56937	8452
204.59087	8509
204.61237	8571
204.63387	8656
204.65536	8690
204.67688	8724
204.69836	8733
204.71986	8770
204.74136	8802
204.76286	8795
204.78436	8898
204.80586	8904
204.82736	8982
204.84886	9027
204.87036	9101
204.89186	9129
204.91336	9197
204.93486	9292
204.95636	9378
204.97784	9373
204.99934	9380
205.02084	9472
205.04234	9452
205.06384	9553
205.08534	9593
205.10683	9593
205.12833	9705
205.14983	9757
205.17133	9757
205.19281	9896
205.21431	9927
205.23581	9986
205.25731	9969
205.27879	10021
205.30029	10075
205.32179	10161
205.34328	10230
205.36478	10341
205.38628	10382
205.40776	10391
205.42926	10443
205.45074	10383
205.47224	10448
205.49374	10538
205.51523	10572
205.53673	10663
205.55821	10793
205.57971	10767
205.6012	10848
205.6227	10933
205.6442	10950
205.66568	10948
205.68718	11086
205.70866	11147
205.73015	11098
205.75165	11122
205.77313	11212
205.79463	11167
205.81612	11281
205.83762	11273
205.8591	11364
205.88058	11389
205.90208	11484
205.92357	11529
205.94507	11516
205.96655	11559
205.98804	11664
206.00954	11641
206.03102	11662
206.05251	11711
206.07401	11781
206.09549	11844
206.11697	11899
206.13846	11969
206.15996	12038
206.18144	12071
206.20293	12156
206.22441	12218
206.24591	12278
206.2674	12348
206.28888	12422
206.31036	12537
206.33185	12662
206.35335	12686
206.37483	12793
206.39632	12867
206.4178	12920
206.43929	12990
206.46077	13052
206.48225	13140
206.50374	13143
206.52522	13191
206.54672	13246
206.56821	13385
206.58969	13442
206.61118	13524
206.63266	13611
206.65414	13699
206.67563	13925
206.69711	13970
206.7186	13986
206.74008	13981
206.76157	14038
206.78304	14200
206.80452	14284
206.826	14383
206.84749	14467
206.86897	14556
206.89046	14630
206.91194	14639
206.93343	14800
206.95491	14793
206.97638	14890
206.99786	14992
207.01935	15023
207.04083	15028
207.06232	15169
207.0838	15178
207.10527	15315
207.12675	15249
207.14824	15191
207.16972	15315
207.19119	15362
207.21268	15444
207.23416	15520
207.25563	15554
207.27711	15625
207.2986	15731
207.32007	15894
207.34155	15949
207.36304	16017
207.38451	16155
207.40599	16218
207.42747	16348
207.44894	16361
207.47043	16321
207.4919	16381
207.51338	16390
207.53487	16451
207.55634	16437
207.57782	16565
207.59929	16655
207.62077	16749
207.64224	16841
207.66373	16888
207.6852	16901
207.70668	16991
207.72815	16976
207.74962	17126
207.7711	17338
207.79257	17494
207.81406	17495
207.83553	17557
207.85701	17701
207.87848	17723
207.89995	17614
207.92143	17739
207.9429	17778
207.96437	17880
207.98586	17919
208.00732	17985
208.02879	17974
208.05028	17993
208.07175	18036
208.09322	18224
208.11469	18462
208.13617	18537
208.15764	18583
208.17911	18627
208.20058	18670
208.22205	18728
208.24353	18889
208.265	18951
208.28647	19171
208.30794	19250
208.32941	19240
208.35088	19265
208.37236	19333
208.39383	19393
208.4153	19469
208.43677	19586
208.45824	19604
208.47971	19614
208.50117	19651
208.52264	19711
208.54411	19683
208.56558	19817
208.58705	19787
208.60852	19767
208.62999	19703
208.65146	19697
208.67293	19815
208.6944	19971
208.71587	20075
208.73734	20174
208.7588	20298
208.78027	20431
208.80174	20534
208.82321	20601
208.84467	20612
208.86613	20563
208.8876	20600
208.90907	20577
208.93054	20644
208.95201	20678
208.97346	20813
208.99493	20671
209.0164	20585
209.03787	20702
209.05934	20850
209.0808	20866
209.10226	20793
209.12373	20823
209.1452	20831
209.16666	20872
209.18813	20900
209.20959	21087
209.23105	21244
209.25252	21358
209.27399	21360
209.29544	21392
209.31691	21430
209.33836	21466
209.35983	21511
209.3813	21620
209.40276	21573
209.42422	21663
209.44568	21747
209.46715	21775
209.4886	21822
209.51007	21801
209.53152	21825
209.55299	21942
209.57445	22271
209.59592	22435
209.61737	22422
209.63884	22250
209.66029	22334
209.68176	22427
209.70322	22443
209.72469	22519
209.74614	22717
209.76759	22823
209.78906	22730
209.81052	22784
209.83197	22745
209.85344	22954
209.87489	22985
209.89635	23042
209.91782	23087
209.93927	23015
209.96072	23105
209.98219	23136
210.00365	23252
210.0251	23291
210.04655	23396
210.06802	23556
210.08948	23603
210.11093	23655
210.13239	23603
210.15384	23554
210.17531	23764
210.19676	23784
210.21822	23929
210.23967	24064
210.26112	24240
210.28258	24303
210.30403	24376
210.32549	24536
210.34695	24582
210.36841	24652
210.38986	24575
210.41132	24540
210.43277	24722
210.45422	24701
210.47568	24853
210.49713	25013
210.51859	25165
210.54004	25099
210.56149	25043
210.58295	25125
210.6044	25146
210.62585	25265
210.64729	25275
210.66875	25456
210.6902	25502
210.71165	25751
210.73311	25768
210.75456	25917
210.77602	25944
210.79747	26044
210.81891	26033
210.84036	26272
210.86182	26378
210.88327	26232
210.90472	26339
210.92616	26378
210.94762	26474
210.96907	26529
210.99052	26551
211.01196	26749
211.03342	27079
211.05487	27249
211.07631	27155
211.09776	27064
211.11922	27005
211.14066	26999
211.16211	27070
211.18356	27200
211.205	27413
211.22646	27472
211.24791	27381
211.26935	27184
211.2908	27204
211.31224	27295
211.33369	27365
211.35513	27503
211.37659	27688
211.39803	27754
211.41948	27643
211.44092	27634
211.46237	27779
211.48381	27712
211.50526	27811
211.5267	27951
211.54816	28015
211.5696	28049
211.59103	28038
211.61249	28088
211.63393	28087
211.65538	28191
211.67682	28245
211.69826	28380
211.71971	28598
211.74115	28751
211.76259	28678
211.78404	28786
211.80548	28695
211.82692	28610
211.84836	28434
211.86981	28521
211.89125	28610
211.91269	28523
211.93413	28563
211.95558	28694
211.97702	28775
211.99846	28694
212.0199	28703
212.04134	28669
212.06277	28805
212.08423	28749
212.10567	28833
212.12711	29105
212.14854	29332
212.16998	29459
212.19142	29417
212.21286	29464
212.2343	29532
212.25574	29485
212.27718	29355
212.29861	29468
212.32005	29496
212.34149	29624
212.36293	29635
212.38437	29603
212.40581	29669
212.42725	29792
212.44868	29876
212.47012	30015
212.49156	30140
212.513	30271
212.53444	30304
212.55588	30247
212.57732	30268
212.59874	30263
212.62018	30402
212.64162	30657
212.66306	30820
212.68449	31029
212.70593	30985
212.72736	30966
212.74879	31028
212.77023	30971
212.79167	31021
212.8131	31165
212.83453	31210
212.85597	31130
212.87741	31044
212.89883	30955
212.92027	31110
212.94171	31118
212.96313	30911
212.98457	30958
213.00601	31064
213.02744	30944
213.04887	31105
213.0703	31064
213.09174	31010
213.11317	30952
213.1346	31205
213.15604	31349
213.17746	31496
213.1989	31523
213.22032	31577
213.24176	31617
213.26318	31494
213.28462	31438
213.30605	31361
213.32748	31260
213.34891	31274
213.37033	31248
213.39177	31162
213.41319	31344
213.43463	31402
213.45605	31470
213.47748	31381
213.49892	31317
213.52034	31351
213.54176	31441
213.5632	31221
213.58463	31300
213.60605	31475
213.62749	31623
213.64891	31597
213.67033	31737
213.69177	31922
213.7132	31792
213.73462	31669
213.75604	31754
213.77747	31890
213.7989	31902
213.82033	31925
213.84175	31808
213.86317	31706
213.8846	31695
213.90602	31691
213.92744	31989
213.94888	32225
213.97031	32363
213.99173	32394
214.01315	32322
214.03458	32323
214.056	32262
214.07742	32430
214.09885	32548
214.12027	32801
214.14169	32905
214.16312	32915
214.18454	33047
214.20596	33013
214.22739	32875
214.24881	32918
214.27023	32938
214.29166	32918
214.31308	32949
214.33449	32860
214.35591	32798
214.37733	32891
214.39876	32844
214.42018	32786
214.4416	32670
214.46303	32553
214.48444	32465
214.50586	32544
214.52728	32805
214.54871	32592
214.57011	32691
214.59154	32750
214.61296	32753
214.63438	32942
214.65579	32805
214.67722	32972
214.69864	32751
214.72005	32757
214.74147	32537
214.76289	32693
214.7843	32666
214.80573	32789
214.82715	32565
214.84856	32283
214.86998	32353
214.89139	32486
214.91281	32506
214.93423	32515
214.95564	32453
214.97707	32392
214.99847	32314
215.0199	32298
215.04131	32258
215.06273	32402
215.08414	32271
215.10556	32305
215.12697	32446
215.14838	32460
215.1698	32394
215.19121	32111
215.21263	32157
215.23404	32100
215.25545	32167
215.27687	32169
215.29828	32301
215.31969	32325
215.34111	32281
215.36252	32183
215.38393	32378
215.40535	32565
215.42676	32577
215.44817	32633
215.46957	32464
215.491	32595
215.51241	32560
215.53381	32561
215.55522	32512
215.57663	32588
215.59805	32682
215.61946	32681
215.64087	32772
215.66228	32886
215.68369	32997
215.70509	32916
215.7265	32967
215.74792	32961
215.76933	32991
215.79074	32995
215.81215	33074
215.83356	33320
215.85497	33180
215.87637	33060
215.89778	32841
215.91919	32842
215.9406	32922
215.96201	32854
215.98341	32990
216.00482	33155
216.02623	33187
216.04762	33099
216.06903	33170
216.09044	33246
216.11185	33036
216.13326	33074
216.15466	33374
216.17607	33408
216.19748	33407
216.21887	33310
216.24028	33219
216.26169	33524
216.2831	33603
216.3045	33445
216.3259	33532
216.34731	33597
216.36871	33559
216.39012	33383
216.41151	33164
216.43292	33043
216.45433	32978
216.47572	33066
216.49713	33137
216.51854	33237
216.53993	33354
216.56134	33236
216.58273	33331
216.60414	33479
216.62555	33366
216.64694	33527
216.66835	33580
216.68974	33518
216.71115	33505
216.73254	33480
216.75395	33462
216.77534	33652
216.79675	33656
216.81815	33436
216.83955	33723
216.86095	33966
216.88235	34206
216.90375	34024
216.92514	33865
216.94655	33966
216.96794	33982
216.98935	34126
217.01074	34170
217.03214	34354
217.05354	34287
217.07494	34355
217.09633	34294
217.11774	34124
217.13913	34045
217.16052	34045
217.18192	34234
217.20332	34293
217.22472	34218
217.24611	34039
217.2675	34032
217.28891	33944
217.3103	34075
217.3317	33863
217.35309	33821
217.37448	33817
217.39587	33722
217.41727	33711
217.43867	33749
217.46007	33550
217.48146	33626
217.50285	33770
217.52425	33889
217.54564	33998
217.56703	34035
217.58842	34017
217.60982	34262
217.63121	34100
217.6526	34014
217.674	33898
217.69539	33787
217.71678	33664
217.73817	33465
217.75957	33331
217.78096	33481
217.80235	33400
217.82373	33371
217.84512	33172
217.86652	33157
217.88791	33082
217.9093	33062
217.93069	33251
217.95209	33545
217.97346	33754
217.99486	33459
218.01625	33387
218.03764	33338
218.05902	33337
218.08041	33267
218.10181	33111
218.1232	33178
218.14458	33110
218.16597	33045
218.18736	33028
218.20874	33071
218.23013	32959
218.25153	32894
218.2729	32952
218.2943	33201
218.31567	33411
218.33707	33447
218.35846	33275
218.37984	33251
218.40123	33070
218.42261	33166
218.444	33309
218.46538	33452
218.48677	33793
218.50815	33775
218.52954	33693
218.55092	33601
218.57231	33481
218.59369	33435
218.61507	33500
218.63646	33709
218.65784	33605
218.67923	33410
218.70061	33228
218.72198	33299
218.74338	33214
218.76476	33088
218.78613	32907
218.80753	32862
218.8289	32970
218.85028	32993
218.87166	33030
218.89305	33012
218.91443	32968
218.93581	32931
218.95718	33166
218.97858	33403
218.99995	33269
219.02133	33301
219.04271	33275
219.06409	33207
219.08546	33095
219.10686	32916
219.12823	32920
219.14961	32924
219.17099	32804
219.19237	32619
219.21375	32624
219.23512	32802
219.2565	32816
219.27788	32712
219.29926	32611
219.32063	32728
219.34201	32550
219.36339	32538
219.38477	32479
219.40614	32551
219.42752	32776
219.4489	32753
219.47028	32718
219.49165	32706
219.51303	32709
219.53439	32466
219.55577	32378
219.57715	32478
219.59853	32431
219.6199	32512
219.64128	32471
219.66264	32400
219.68402	32348
219.7054	32122
219.72678	32373
219.74814	32507
219.76952	32664
219.79089	32705
219.81227	32474
219.83363	32403
219.85501	32276
219.87639	32306
219.89775	32386
219.91913	32684
219.94051	32892
219.96187	32813
219.98325	32658
220.00461	32749
220.02599	32911
220.04735	32788
220.06873	32712
220.0901	32676
220.11147	32646
220.13284	32502
220.15421	32474
220.17558	32623
220.19695	32546
220.21832	32546
220.23969	32407
220.26105	32340
220.28242	32286
220.30379	32187
220.32516	32272
220.34653	32297
220.36789	32381
220.38927	32368
220.41063	32398
220.43199	32562
220.45337	32441
220.47473	32557
220.49609	32535
220.51747	32404
220.53883	32377
220.5602	32140
220.58156	32216
220.60294	32375
220.6243	32420
220.64566	32069
220.66702	31942
220.68839	32141
220.70976	32386
220.73112	32331
220.75249	32415
220.77385	32316
220.79521	32236
220.81657	32047
220.83794	31958
220.8593	31933
220.88066	31865
220.90202	31795
220.92339	31955
220.94475	32075
220.96611	31880
220.98747	31823
221.00883	31707
221.0302	31633
221.05156	31570
221.07292	31629
221.09428	31803
221.11565	31836
221.13701	31830
221.15837	31670
221.17973	31565
221.2011	31867
221.22246	31859
221.2438	31836
221.26517	31836
221.28653	31773
221.30789	31789
221.32925	31653
221.3506	31482
221.37196	31438
221.39333	31553
221.41469	31596
221.43604	31741
221.4574	31950
221.47876	32060
221.50011	32119
221.52147	32103
221.54283	32121
221.56418	32242
221.58554	32265
221.6069	32372
221.62825	32513
221.64961	32512
221.67096	32469
221.69232	32185
221.71368	32156
221.73503	32094
221.75639	32100
221.77774	32177
221.7991	32284
221.82045	32183
221.84181	32123
221.86316	32172
221.88451	32148
221.90587	32131
221.92722	32143
221.94858	32325
221.96992	32368
221.99127	32387
222.01263	32285
222.03398	32213
222.05534	32170
222.07669	32406
222.09804	32418
222.11938	32679
222.14075	32752
222.16209	32839
222.18344	32765
222.2048	32311
222.22615	32221
222.2475	32101
222.26884	32108
222.29019	32163
222.31155	32249
222.3329	32332
222.35425	32129
222.3756	32193
222.39694	32402
222.41829	32271
222.43964	32338
222.46098	32414
222.48235	32501
222.50369	32578
222.52504	32444
222.54639	32386
222.56773	32424
222.58908	32460
222.61043	32360
222.63177	32376
222.65312	32664
222.67447	32865
222.69582	32873
222.71715	32758
222.73849	32699
222.75984	32595
222.78119	32853
222.80254	32917
222.82388	33096
222.84523	33320
222.86658	33302
222.88791	33351
222.90926	33331
222.9306	33323
222.95195	33248
222.9733	33406
222.99463	33640
223.01598	33531
223.03732	33442
223.05867	33419
223.08	33439
223.10135	33492
223.1227	33483
223.14403	33446
223.16537	33339
223.18672	33386
223.20805	33345
223.2294	33398
223.25073	33477
223.27208	33457
223.29343	33509
223.31476	33681
223.33611	33863
223.35744	33866
223.37878	33934
223.40012	34016
223.42146	33893
223.44279	33900
223.46414	33644
223.48547	33598
223.50682	33585
223.52815	33420
223.54948	33302
223.57083	33291
223.59216	33453
223.61349	33316
223.63484	33353
223.65617	33101
223.67752	32995
223.69885	33022
223.72018	33047
223.74152	33117
223.76286	33576
223.78419	33682
223.80553	33596
223.82686	33564
223.84821	33585
223.86954	33487
223.89087	33477
223.9122	33536
223.93353	33657
223.95488	33712
223.97621	33883
223.99754	33859
224.01888	33747
224.04021	33790
224.06154	33827
224.08287	34040
224.1042	34418
224.12553	34756
224.14687	34841
224.1682	34813
224.18953	34539
224.21086	34465
224.23219	34206
224.25352	34554
224.27486	34719
224.29619	35127
224.31752	35111
224.33885	35136
224.36018	35222
224.38152	35214
224.40285	34866
224.42418	34966
224.4455	35142
224.46683	35068
224.48816	34828
224.50949	34671
224.53082	34536
224.55214	34537
224.57347	34533
224.5948	34572
224.61613	34556
224.63745	34876
224.65878	34896
224.68011	34874
224.70145	34867
224.72276	34886
224.74409	35075
224.76541	35456
224.78674	35685
224.80807	35666
224.82939	35655
224.85072	35817
224.87204	35842
224.89337	35938
224.9147	35454
224.93602	35370
224.95735	35603
224.97867	35585
225	35073
225.02132	35314
225.04265	35959
225.06396	35782
225.08528	36066
225.10661	36159
225.12793	36277
225.14926	36235
225.17058	36119
225.19189	36147
225.21323	36276
225.23454	36297
225.25586	36596
225.27719	36473
225.29851	36588
225.31982	36509
225.34116	36384
225.36247	36410
225.38379	36298
225.40511	36300
225.42644	36452
225.44775	36506
225.46907	36569
225.49039	36546
225.5117	36609
225.53304	36609
225.55435	36880
225.57567	36808
225.59698	36912
225.6183	36838
225.63962	36754
225.66093	36932
225.68225	36708
225.70357	36943
225.72488	37166
225.7462	37118
225.76752	37098
225.78883	37290
225.81015	37119
225.83147	37457
225.85278	37479
225.8741	37316
225.89542	37650
225.91673	37550
225.93805	37453
225.95937	37485
225.98068	37628
226.00198	37610
226.0233	37585
226.04462	37479
226.06593	37409
226.08725	37515
226.10855	37696
226.12987	37615
226.15118	37534
226.1725	37764
226.1938	37766
226.21512	37930
226.23643	37906
226.25775	37993
226.27905	38064
226.30037	37884
226.32167	38075
226.34299	37882
226.3643	37851
226.3856	38055
226.40692	38120
226.42824	38095
226.44954	38019
226.47086	38088
226.49216	38046
226.51347	38178
226.53477	37978
226.55609	37869
226.57739	37864
226.59871	37630
226.62001	37410
226.64131	37019
226.66263	37001
226.68393	37071
226.70525	36859
226.72655	36938
226.74785	37339
226.76917	37157
226.79047	37035
226.81177	37170
226.83308	36880
226.85439	37027
226.87569	37043
226.897	37100
226.9183	37631
226.93961	37289
226.96091	37534
226.98222	37587
227.00352	37715
227.02483	37913
227.04613	38003
227.06743	37981
227.08873	38002
227.11005	37880
227.13135	37541
227.15265	37470
227.17395	37537
227.19525	37637
227.21655	37810
227.23785	37882
227.25916	38320
227.28046	38326
227.30176	38427
227.32306	38199
227.34436	38243
227.36566	38317
227.38696	38403
227.40826	38758
227.42957	38865
227.45087	38968
227.47217	38819
227.49347	38787
227.51476	38592
227.53606	38507
227.55736	38475
227.57866	38798
227.59996	38899
227.62126	38801
227.64255	39076
227.66385	38963
227.68515	39179
227.70645	39140
227.72774	39185
227.74904	39271
227.77034	39396
227.79163	39367
227.81293	39186
227.83423	39150
227.85551	39181
227.87682	39037
227.89812	39615
227.9194	39406
227.9407	40014
227.96199	39866
227.98329	39779
228.00459	39898
228.02588	39496
228.04718	39758
228.06847	39790
228.08977	39824
228.11105	40166
228.13234	40264
228.15364	40478
228.17493	40208
228.19623	40469
228.21751	40786
228.23882	40383
228.2601	40660
228.28139	40667
228.30269	40767
228.32397	40763
228.34526	40866
228.36656	40691
228.38785	40854
228.40913	40681
228.43042	41005
228.45172	41211
228.47301	41484
228.49429	41447
228.51558	41412
228.53688	41504
228.55817	41350
228.57945	41728
228.60074	41743
228.62202	42107
228.64331	42463
228.6646	42270
228.6859	42475
228.70718	42460
228.72847	42681
228.74976	42817
228.77104	42861
228.79233	42923
228.81361	43315
228.8349	42857
228.85619	42936
228.87747	43103
228.89876	42986
228.92004	43246
228.94133	42880
228.9626	43200
228.98389	43113
229.00517	43176
229.02646	43383
229.04774	43802
229.06903	43922
229.09032	43644
229.11159	44325
229.13287	44305
229.15416	44447
229.17545	44596
229.19673	44819
229.218	44623
229.23929	44826
229.26057	44592
229.28185	44783
229.30313	44694
229.32442	44556
229.34569	44578
229.36697	44604
229.38826	44761
229.40953	44723
229.43082	44508
229.45209	44591
229.47337	44678
229.49466	44556
229.51593	44588
229.53722	44665
229.55849	44811
229.57977	44882
229.60104	44758
229.62233	44646
229.6436	44298
229.66489	44290
229.68616	44273
229.70743	44013
229.72871	43974
229.74998	43633
229.77126	43839
229.79254	43253
229.81381	43258
229.8351	43306
229.85637	43086
229.87764	43094
229.89891	42896
229.9202	43267
229.94147	42908
229.96274	43231
229.98401	42543
230.00529	42607
230.02657	42443
230.04784	42781
230.06911	42957
230.09038	42600
230.11165	42927
230.13293	42583
230.15421	42691
230.17548	42302
230.19675	42199
230.21802	42151
230.23929	42057
230.26056	42024
230.28183	41664
230.3031	41325
230.32437	41546
230.34564	41214
230.36691	40943
230.38818	40799
230.40945	40663
230.43073	40754
230.452	41075
230.47327	40782
230.49454	40868
230.51579	40662
230.53706	40424
230.55833	40715
230.57961	40834
230.60088	40681
230.62215	40755
230.6434	40888
230.66467	40307
230.68594	40531
230.70721	40307
230.72847	40208
230.74974	40215
230.77101	39793
230.79227	39768
230.81354	39858
230.83481	39966
230.85606	40301
230.87733	40119
230.89861	40366
230.91986	40206
230.94113	40142
230.96239	39713
230.98366	39813
231.00491	39649
231.02618	39837
231.04744	39767
231.06871	40069
231.08997	40039
231.11124	40081
231.13249	39651
231.15376	39912
231.17502	39805
231.19629	39873
231.21754	40004
231.2388	39980
231.26007	40158
231.28133	40324
231.30258	39982
231.32385	40202
231.34511	40327
231.36636	40506
231.38763	40308
231.40889	40466
231.43015	40302
231.4514	40375
231.47266	40394
231.49393	40633
231.51518	40359
231.53644	40486
231.55769	40663
231.57895	40682
231.6002	40688
231.62148	41049
231.64273	40975
231.66399	40888
231.68524	41045
231.7065	40933
231.72775	41182
231.74901	41021
231.77026	41074
231.79152	41130
231.81277	40871
231.83403	40718
231.85529	40690
231.87654	40656
231.8978	40926
231.91905	41059
231.94031	40791
231.96155	40954
231.9828	40865
232.00406	40744
232.02531	40836
232.04657	40587
232.06783	40737
232.08907	41038
232.11032	40807
232.13158	40779
232.15283	40447
232.17407	40630
232.19533	40591
232.21658	40844
232.23784	40691
232.25908	40427
232.28033	40820
232.30159	40816
232.32283	40728
232.34409	40427
232.36533	40445
232.38658	40112
232.40784	40037
232.42908	39579
232.45033	39635
232.47157	39361
232.49283	39527
232.51407	39760
232.53532	39680
232.55656	39658
232.57782	39634
232.59906	39525
232.6203	39300
232.64156	39429
232.6628	39793
232.68405	39772
232.70529	40057
232.72653	40366
232.74779	40004
232.76903	40241
232.79027	39946
232.81152	40668
232.83276	40380
232.854	40558
232.87524	40432
232.8965	40299
232.91774	40139
232.93898	40050
232.96022	39843
232.98146	40184
233.00272	40136
233.02396	40301
233.0452	40478
233.06644	40633
233.08768	40460
233.10892	40599
233.13016	40761
233.1514	40812
233.17264	41071
233.19388	41164
233.21512	41251
233.23636	41532
233.2576	41209
233.27884	41244
233.30008	41228
233.32132	41255
233.34256	41207
233.3638	41467
233.38504	41321
233.40628	41348
233.42752	41290
233.44876	41593
233.46999	41303
233.49123	41469
233.51247	41618
233.53371	41440
233.55495	41498
233.57617	41347
233.59741	41461
233.61865	41448
233.63989	41402
233.66112	41717
233.68236	41800
233.7036	41856
233.72482	42065
233.74606	41940
233.7673	41787
233.78853	41550
233.80977	41576
233.83099	41573
233.85223	41567
233.87347	41764
233.8947	41745
233.91594	41885
233.93716	41885
233.9584	41955
233.97963	41877
234.00087	41852
234.02209	41823
234.04332	41650
234.06456	41656
234.08578	41668
234.10703	41481
234.12825	41694
234.14948	41431
234.17072	41351
234.19194	41280
234.21317	41894
234.23441	41951
234.25563	42090
234.27686	42033
234.29808	42238
234.31932	42103
234.34055	41814
234.36177	42167
234.383	42224
234.40424	42490
234.42546	42845
234.44669	42606
234.46791	42570
234.48914	42893
234.51036	42717
234.53159	42696
234.55281	42528
234.57404	42795
234.59526	42657
234.61649	42705
234.63773	42565
234.65895	42505
234.68016	42624
234.70139	42168
234.72261	42072
234.74384	42149
234.76506	41960
234.78629	41735
234.80751	41958
234.82874	42118
234.84996	41930
234.87119	42390
234.89241	42159
234.91362	42623
234.93484	42272
234.95607	42431
234.97729	42362
234.9985	42194
235.01973	42284
235.04095	42263
235.06218	42065
235.08339	42001
235.10461	41943
235.12584	41785
235.14705	41901
235.16827	41754
235.1895	41658
235.21071	41747
235.23193	41714
235.25314	41698
235.27437	41269
235.29559	41344
235.3168	41288
235.33803	41722
235.35924	41474
235.38046	41495
235.40167	41364
235.4229	41354
235.44411	41198
235.46532	40937
235.48654	41162
235.50775	41278
235.52898	41213
235.55019	41281
235.5714	41158
235.59262	41054
235.61383	40901
235.63504	40893
235.65627	40699
235.67747	41119
235.69868	40958
235.71989	41060
235.74112	40984
235.76233	40841
235.78354	40841
235.80475	40930
235.82596	41075
235.84718	40993
235.86839	41365
235.8896	40878
235.91081	40928
235.93202	41087
235.95323	41140
235.97444	40971
235.99565	41071
236.01686	40902
236.03807	40648
236.05928	40679
236.08049	40655
236.1017	40475
236.12291	40300
236.14412	39955
236.16533	40114
236.18654	39709
236.20775	40222
236.22896	39934
236.25017	39998
236.27136	39823
236.29257	39793
236.31378	39681
236.33499	39925
236.3562	39854
236.3774	39737
236.39861	39565
236.41982	39480
236.44102	39493
236.46222	39199
236.48343	39058
236.50464	39237
236.52583	39082
236.54704	38596
236.56825	38603
236.58945	38454
236.61066	38509
236.63187	38573
236.65306	38212
236.67427	38185
236.69547	37871
236.71667	37768
236.73787	37315
236.75908	37390
236.78027	37309
236.80148	37347
236.82268	37240
236.84389	37178
236.86508	37151
236.88629	36637
236.90749	36750
236.92868	36396
236.94989	36271
236.97108	36413
236.99228	36593
237.01349	36497
237.03468	36483
237.05588	36314
237.07709	35997
237.09828	36250
237.11948	36018
237.14067	35894
237.16187	35780
237.18307	35577
237.20427	35136
237.22546	35156
237.24666	34890
237.26785	35015
237.28905	34995
237.31024	34873
237.33145	34813
237.35265	34846
237.37384	34760
237.39503	34766
237.41623	34653
237.43742	34455
237.45862	34293
237.47981	34262
237.50101	34129
237.5222	34205
237.5434	34213
237.56458	33775
237.58577	33801
237.60696	33601
237.62816	33363
237.64935	33221
237.67055	33202
237.69174	33238
237.71292	33000
237.73412	32951
237.75531	32761
237.7765	32848
237.7977	32794
237.81888	32703
237.84007	32478
237.86127	32412
237.88245	32143
237.90364	31805
237.92484	31741
237.94601	31445
237.96721	31386
237.9884	31225
238.00958	31312
238.03078	31263
238.05196	31166
238.07315	31327
238.09433	31052
238.11552	30873
238.1367	30599
238.1579	30320
238.17908	30079
238.20027	29934
238.22145	29709
238.24265	29465
238.26382	29543
238.285	29420
238.3062	29437
238.32738	29125
238.34857	29251
238.36975	29027
238.39093	28861
238.41211	28853
238.4333	28774
238.45448	28902
238.47566	28844
238.49686	28693
238.51804	28495
238.53922	28459
238.56039	28492
238.58157	28490
238.60275	28211
238.62395	28233
238.64513	27978
238.66631	27713
238.68748	27378
238.70866	27205
238.72984	27009
238.75102	26965
238.7722	26965
238.79338	26967
238.81456	26928
238.83574	26861
238.85692	26495
238.8781	26517
238.89928	26491
238.92046	26503
238.94164	26424
238.96281	26328
238.98399	26301
239.00516	26155
239.02634	26038
239.04752	25781
239.0687	25596
239.08987	25446
239.11105	25318
239.13222	25344
239.1534	25174
239.17458	25094
239.19576	24962
239.21692	24862
239.2381	24747
239.25928	24624
239.28044	24486
239.30162	24357
239.3228	24325
239.34396	24057
239.36514	24107
239.38631	24023
239.40749	23869
239.42865	23787
239.44983	23838
239.47099	23800
239.49217	23697
239.51334	23563
239.53452	23480
239.55568	23227
239.57686	23123
239.59802	22907
239.6192	22877
239.64037	22851
239.66153	22758
239.68271	22723
239.70387	22628
239.72504	22513
239.74622	22408
239.76738	22321
239.78854	22101
239.80972	21951
239.83089	21844
239.85205	21882
239.87321	21827
239.89438	21584
239.91556	21297
239.93672	21002
239.95789	20947
239.97905	21158
240.00021	21080
240.02138	20984
240.04254	20827
240.06372	20668
240.08488	20497
240.10605	20523
240.12721	20421
240.14838	20482
240.16954	20411
240.1907	20400
240.21187	20293
240.23303	20209
240.25418	20094
240.27534	19951
240.29651	19836
240.31767	19757
240.33884	19719
240.36	19500
240.38116	19405
240.40233	19274
240.42348	19201
240.44464	19084
240.46581	19003
240.48697	18884
240.50812	18719
240.52928	18716
240.55045	18584
240.57161	18597
240.59276	18438
240.61392	18368
240.63509	18334
240.65623	18321
240.6774	18286
240.69855	18097
240.71971	17958
240.74088	17866
240.76202	17834
240.78319	17709
240.80434	17641
240.8255	17499
240.84665	17402
240.86781	17194
240.88896	17032
240.91013	16952
240.93127	16857
240.95242	16700
240.97359	16649
240.99474	16573
241.01588	16407
241.03705	16263
241.0582	16056
241.07935	16005
241.10051	15970
241.12166	15939
241.14281	15842
241.16397	15777
241.18512	15662
241.20627	15464
241.22742	15366
241.24857	15322
241.26973	15250
241.29088	15247
241.31203	15190
241.33318	15110
241.35432	14914
241.37547	14811
241.39662	14776
241.41777	14766
241.43892	14634
241.46007	14662
241.48122	14625
241.50237	14626
241.52351	14442
241.54466	14241
241.56581	14234
241.58696	14213
241.60811	14248
241.62926	14263
241.65041	14091
241.67155	14195
241.6927	14174
241.71384	14118
241.73499	14043
241.75613	13997
241.77728	13847
241.79843	13693
241.81956	13624
241.84071	13569
241.86186	13658
241.88301	13505
241.90414	13423
241.92529	13238
241.94644	13201
241.96758	13088
241.98872	13145
242.00986	13116
242.03101	13034
242.05215	12900
242.07329	12821
242.09444	12875
242.11557	12793
242.13672	12675
242.15785	12681
242.179	12594
242.20013	12518
242.22128	12441
242.24242	12356
242.26357	12345
242.2847	12331
242.30583	12251
242.32698	12144
242.34811	12156
242.36925	12155
242.3904	12072
242.41153	12039
242.43266	11934
242.45381	11841
242.47495	11726
242.49608	11660
242.51721	11550
242.53835	11491
242.55949	11443
242.58063	11424
242.60176	11423
242.62289	11373
242.64403	11250
242.66516	11179
242.68629	11146
242.70744	11077
242.72858	11111
242.74971	11116
242.77084	11098
242.79198	11031
242.81311	10919
242.83424	10799
242.85538	10822
242.87651	10774
242.89763	10726
242.91876	10689
242.9399	10660
242.96103	10639
242.98216	10487
243.0033	10379
243.02443	10371
243.04556	10215
243.06668	10212
243.08781	10245
243.10895	10279
243.13008	10230
243.1512	10176
243.17233	10062
243.19347	9996
243.2146	9937
243.23572	9897
243.25685	9895
243.27797	9857
243.2991	9845
243.32024	9745
243.34135	9691
243.36249	9604
243.38361	9542
243.40474	9512
243.42587	9472
243.44699	9482
243.46812	9424
243.48924	9307
243.51036	9241
243.53149	9215
243.55261	9164
243.57375	9113
243.59486	9076
243.616	9014
243.63712	8923
243.65823	8853
243.67937	8819
243.70049	8743
243.7216	8716
243.74272	8711
243.76385	8688
243.78497	8696
243.80609	8672
243.82721	8584
243.84834	8520
243.86946	8434
243.89058	8312
243.9117	8277
243.93282	8205
243.95393	8138
243.97505	8095
243.99619	8045
244.0173	8090
244.03842	7980
244.05954	7946
244.08066	7936
244.10178	7878
244.12289	7899
244.14401	7808
244.16513	7779
244.18625	7815
244.20735	7847
244.22847	7825
244.24959	7753
244.27071	7790
244.29182	7682
244.31294	7683
244.33406	7590
244.35516	7595
244.37628	7535
244.3974	7523
244.41852	7452
244.43964	7420
244.46074	7288
244.48186	7365
244.50298	7315
244.52408	7362
244.5452	7317
244.56631	7271
244.58742	7174
244.60854	7115
244.62964	7107
244.65076	7130
244.67188	7123
244.69298	7119
244.7141	7099
244.7352	7069
244.75632	7017
244.77742	7005
244.79854	6967
244.81964	6897
244.84074	6878
244.86186	6855
244.88297	6809
244.90408	6741
244.92519	6735
244.94629	6764
244.96741	6701
244.98851	6633
245.00961	6632
245.03073	6548
245.05183	6526
245.07294	6479
245.09404	6450
245.11516	6442
245.13626	6442
245.15736	6426
245.17847	6401
245.19957	6418
245.22067	6362
245.24178	6373
245.26289	6310
245.284	6286
245.3051	6235
245.3262	6204
245.34731	6170
245.36841	6113
245.38951	6161
245.41061	6052
245.43172	6079
245.45282	6037
245.47392	6060
245.49503	6030
245.51611	5955
245.53722	5942
245.55832	5898
245.57942	5859
245.60052	5880
245.62163	5819
245.64272	5850
245.66382	5736
245.68492	5756
245.70602	5684
245.72711	5686
245.74821	5678
245.76932	5674
245.79042	5620
245.81151	5600
245.83261	5564
245.85371	5590
245.8748	5561
245.8959	5527
245.91699	5490
245.9381	5469
245.95918	5418
245.98029	5435
246.00137	5419
246.02248	5402
246.04356	5373
246.06467	5383
246.08575	5347
246.10686	5310
246.12794	5294
246.14905	5304
246.17014	5277
246.19122	5227
246.21233	5209
246.23341	5179
246.2545	5132
246.2756	5197
246.29669	5111
246.31778	5088
246.33887	5066
246.35997	5068
246.38106	5027
246.40215	5022
246.42323	4961
246.44432	4964
246.46542	4963
246.48651	4932
246.5076	4947
246.52869	4940
246.54977	4946
246.57086	4916
246.59195	4899
246.61304	4876
246.63412	4858
246.65521	4823
246.6763	4799
246.69739	4758
246.71848	4733
