Date and Time:                Mon Jan 30 17:16:37.000 2023
Software Version:             4.31.30023.0
Temperature (C):              -40
Model:                        DU940P_BU2
Data Type:                    Counts
Acquisition Mode:             Single Scan
Trigger Mode:                 Internal
Exposure Time (secs):         40
Readout Mode:                 Full Vertical Binning
Horizontal binning:           1
Extended Dynamic Range:       off
Horizontally flipped:         false
Vertical Shift Speed (usecs): 14.51
Pixel Readout Rate (MHz):     3
Baseline Clamp:               ON
Clock Amplitude:              Normal
Output Amplifier:             High Capacity
Serial Number:                23634
Pre-Amplifier Gain:           1.000000
Spurious Noise Filter Mode:   No Filter
Photon counted:               false
Data Averaging Filter Mode:   No Filter
SR500i:
Serial Number:                
Wavelength (nm):              225
Grating Groove Density (l/mm):1199.47
Grating Blaze:                500
Output Flipper Port:          Direct
Accessory Output Port 1:      Off
Accessory Output Port 2:      Off
Accessory Output Port 3:      Off
Accessory Input Port:         On



203.08546	6269
203.10698	5970
203.12848	6030
203.14999	6043
203.17151	6062
203.19302	6164
203.21452	6199
203.23604	6196
203.25755	6202
203.27905	6284
203.30057	6262
203.32208	6246
203.34358	6267
203.3651	6297
203.38661	6336
203.40811	6366
203.42963	6416
203.45113	6484
203.47264	6514
203.49416	6521
203.51566	6596
203.53717	6604
203.55867	6671
203.58018	6660
203.60168	6703
203.6232	6731
203.6447	6808
203.66621	6823
203.68771	6899
203.70923	6911
203.73073	6955
203.75224	7027
203.77374	7063
203.79526	7094
203.81676	7144
203.83827	7192
203.85977	7213
203.88127	7247
203.90279	7300
203.92429	7357
203.94579	7369
203.9673	7420
203.9888	7415
204.01031	7444
204.03181	7471
204.05331	7565
204.07481	7594
204.09633	7605
204.11783	7663
204.13933	7675
204.16084	7777
204.18234	7788
204.20384	7797
204.22534	7874
204.24684	7924
204.26836	7969
204.28986	7995
204.31136	8101
204.33286	8132
204.35435	8145
204.37587	8187
204.39737	8216
204.41887	8275
204.44037	8282
204.46187	8280
204.48337	8365
204.50487	8360
204.52637	8399
204.54787	8443
204.56937	8398
204.59087	8455
204.61237	8531
204.63387	8603
204.65536	8630
204.67688	8688
204.69836	8740
204.71986	8679
204.74136	8736
204.76286	8794
204.78436	8842
204.80586	8882
204.82736	8927
204.84886	8981
204.87036	9017
204.89186	9091
204.91336	9183
204.93486	9268
204.95636	9280
204.97784	9302
204.99934	9312
205.02084	9426
205.04234	9406
205.06384	9458
205.08534	9452
205.10683	9512
205.12833	9604
205.14983	9709
205.17133	9730
205.19281	9779
205.21431	9889
205.23581	9968
205.25731	9909
205.27879	9952
205.30029	10055
205.32179	10142
205.34328	10177
205.36478	10238
205.38628	10329
205.40776	10389
205.42926	10324
205.45074	10374
205.47224	10379
205.49374	10474
205.51523	10517
205.53673	10599
205.55821	10634
205.57971	10680
205.6012	10737
205.6227	10816
205.6442	10846
205.66568	10897
205.68718	10941
205.70866	11055
205.73015	11047
205.75165	11036
205.77313	11122
205.79463	11140
205.81612	11137
205.83762	11167
205.8591	11257
205.88058	11351
205.90208	11383
205.92357	11378
205.94507	11424
205.96655	11499
205.98804	11505
206.00954	11558
206.03102	11549
206.05251	11605
206.07401	11688
206.09549	11761
206.11697	11794
206.13846	11896
206.15996	11931
206.18144	11901
206.20293	12019
206.22441	12050
206.24591	12101
206.2674	12234
206.28888	12304
206.31036	12387
206.33185	12509
206.35335	12580
206.37483	12645
206.39632	12690
206.4178	12777
206.43929	12856
206.46077	12902
206.48225	12904
206.50374	12930
206.52522	13036
206.54672	13032
206.56821	13134
206.58969	13339
206.61118	13422
206.63266	13460
206.65414	13599
206.67563	13724
206.69711	13805
206.7186	13822
206.74008	13753
206.76157	13915
206.78304	13994
206.80452	14076
206.826	14159
206.84749	14299
206.86897	14386
206.89046	14361
206.91194	14525
206.93343	14588
206.95491	14551
206.97638	14593
206.99786	14721
207.01935	14855
207.04083	14820
207.06232	14866
207.0838	14980
207.10527	15057
207.12675	15145
207.14824	15136
207.16972	15155
207.19119	15174
207.21268	15207
207.23416	15280
207.25563	15274
207.27711	15431
207.2986	15476
207.32007	15644
207.34155	15746
207.36304	15850
207.38451	15905
207.40599	16047
207.42747	16164
207.44894	16122
207.47043	16137
207.4919	16160
207.51338	16209
207.53487	16262
207.55634	16235
207.57782	16400
207.59929	16495
207.62077	16612
207.64224	16546
207.66373	16701
207.6852	16753
207.70668	16783
207.72815	16740
207.74962	16878
207.7711	17112
207.79257	17196
207.81406	17268
207.83553	17275
207.85701	17460
207.87848	17473
207.89995	17374
207.92143	17508
207.9429	17539
207.96437	17659
207.98586	17699
208.00732	17770
208.02879	17766
208.05028	17805
208.07175	17829
208.09322	17953
208.11469	18169
208.13617	18308
208.15764	18435
208.17911	18441
208.20058	18418
208.22205	18480
208.24353	18623
208.265	18789
208.28647	18987
208.30794	19126
208.32941	19076
208.35088	19125
208.37236	19205
208.39383	19274
208.4153	19335
208.43677	19366
208.45824	19385
208.47971	19421
208.50117	19415
208.52264	19504
208.54411	19521
208.56558	19593
208.58705	19596
208.60852	19549
208.62999	19551
208.65146	19590
208.67293	19738
208.6944	19829
208.71587	19912
208.73734	20045
208.7588	20173
208.78027	20244
208.80174	20433
208.82321	20530
208.84467	20547
208.86613	20503
208.8876	20445
208.90907	20512
208.93054	20457
208.95201	20536
208.97346	20589
208.99493	20563
209.0164	20510
209.03787	20625
209.05934	20776
209.0808	20750
209.10226	20746
209.12373	20680
209.1452	20692
209.16666	20742
209.18813	20820
209.20959	20986
209.23105	21146
209.25252	21433
209.27399	21428
209.29544	21290
209.31691	21457
209.33836	21541
209.35983	21464
209.3813	21587
209.40276	21608
209.42422	21729
209.44568	21727
209.46715	21821
209.4886	21889
209.51007	21873
209.53152	21936
209.55299	21955
209.57445	22279
209.59592	22521
209.61737	22448
209.63884	22367
209.66029	22346
209.68176	22491
209.70322	22471
209.72469	22669
209.74614	22832
209.76759	22927
209.78906	22923
209.81052	22886
209.83197	22959
209.85344	23048
209.87489	23093
209.89635	23104
209.91782	23222
209.93927	23230
209.96072	23171
209.98219	23271
210.00365	23394
210.0251	23536
210.04655	23533
210.06802	23660
210.08948	23779
210.11093	23825
210.13239	23765
210.15384	23669
210.17531	23918
210.19676	24042
210.21822	24140
210.23967	24189
210.26112	24375
210.28258	24500
210.30403	24507
210.32549	24654
210.34695	24809
210.36841	24867
210.38986	24740
210.41132	24793
210.43277	24849
210.45422	25020
210.47568	25099
210.49713	25197
210.51859	25409
210.54004	25425
210.56149	25278
210.58295	25336
210.6044	25418
210.62585	25501
210.64729	25564
210.66875	25699
210.6902	25877
210.71165	26006
210.73311	26072
210.75456	26146
210.77602	26217
210.79747	26354
210.81891	26353
210.84036	26489
210.86182	26675
210.88327	26684
210.90472	26655
210.92616	26664
210.94762	26711
210.96907	26898
210.99052	26900
211.01196	27057
211.03342	27397
211.05487	27442
211.07631	27427
211.09776	27265
211.11922	27339
211.14066	27313
211.16211	27394
211.18356	27479
211.205	27692
211.22646	27770
211.24791	27698
211.26935	27566
211.2908	27546
211.31224	27550
211.33369	27637
211.35513	27815
211.37659	27977
211.39803	27988
211.41948	27901
211.44092	27874
211.46237	28081
211.48381	27947
211.50526	28158
211.5267	28202
211.54816	28263
211.5696	28252
211.59103	28291
211.61249	28324
211.63393	28398
211.65538	28458
211.67682	28499
211.69826	28735
211.71971	28842
211.74115	28920
211.76259	28950
211.78404	29001
211.80548	28935
211.82692	28837
211.84836	28682
211.86981	28728
211.89125	28707
211.91269	28699
211.93413	28738
211.95558	28820
211.97702	29008
211.99846	28981
212.0199	28951
212.04134	28978
212.06277	28969
212.08423	28970
212.10567	29067
212.12711	29339
212.14854	29502
212.16998	29693
212.19142	29649
212.21286	29592
212.2343	29668
212.25574	29669
212.27718	29537
212.29861	29695
212.32005	29651
212.34149	29654
212.36293	29719
212.38437	29761
212.40581	29824
212.42725	29871
212.44868	29937
212.47012	30027
212.49156	30354
212.513	30466
212.53444	30388
212.55588	30369
212.57732	30339
212.59874	30375
212.62018	30511
212.64162	30786
212.66306	30965
212.68449	31147
212.70593	31124
212.72736	31123
212.74879	31056
212.77023	31064
212.79167	31036
212.8131	31090
212.83453	31225
212.85597	31167
212.87741	30977
212.89883	31007
212.92027	31158
212.94171	31089
212.96313	31051
212.98457	30945
213.00601	30996
213.02744	31048
213.04887	31037
213.0703	31085
213.09174	31050
213.11317	30981
213.1346	31069
213.15604	31397
213.17746	31522
213.1989	31524
213.22032	31527
213.24176	31548
213.26318	31469
213.28462	31395
213.30605	31417
213.32748	31211
213.34891	31169
213.37033	31096
213.39177	31071
213.41319	31216
213.43463	31357
213.45605	31332
213.47748	31254
213.49892	31316
213.52034	31267
213.54176	31369
213.5632	31211
213.58463	31213
213.60605	31355
213.62749	31418
213.64891	31468
213.67033	31663
213.69177	31724
213.7132	31616
213.73462	31574
213.75604	31614
213.77747	31685
213.7989	31756
213.82033	31782
213.84175	31640
213.86317	31587
213.8846	31614
213.90602	31571
213.92744	31830
213.94888	32168
213.97031	32231
213.99173	32197
214.01315	32280
214.03458	32166
214.056	32074
214.07742	32243
214.09885	32426
214.12027	32666
214.14169	32698
214.16312	32635
214.18454	32791
214.20596	32839
214.22739	32709
214.24881	32702
214.27023	32674
214.29166	32785
214.31308	32816
214.33449	32722
214.35591	32691
214.37733	32633
214.39876	32749
214.42018	32742
214.4416	32426
214.46303	32442
214.48444	32350
214.50586	32305
214.52728	32578
214.54871	32500
214.57011	32504
214.59154	32604
214.61296	32722
214.63438	32784
214.65579	32667
214.67722	32771
214.69864	32663
214.72005	32581
214.74147	32534
214.76289	32536
214.7843	32522
214.80573	32541
214.82715	32283
214.84856	32150
214.86998	32141
214.89139	32317
214.91281	32419
214.93423	32264
214.95564	32433
214.97707	32242
214.99847	32109
215.0199	32091
215.04131	32008
215.06273	32191
215.08414	32073
215.10556	32153
215.12697	32291
215.14838	32389
215.1698	32213
215.19121	32049
215.21263	32003
215.23404	31941
215.25545	31961
215.27687	32096
215.29828	32154
215.31969	32232
215.34111	32258
215.36252	32118
215.38393	32266
215.40535	32483
215.42676	32586
215.44817	32502
215.46957	32458
215.491	32295
215.51241	32419
215.53381	32577
215.55522	32442
215.57663	32595
215.59805	32606
215.61946	32507
215.64087	32709
215.66228	32831
215.68369	32929
215.70509	32931
215.7265	32865
215.74792	32955
215.76933	32977
215.79074	32936
215.81215	33056
215.83356	33284
215.85497	33142
215.87637	33038
215.89778	32951
215.91919	32858
215.9406	32849
215.96201	32980
215.98341	33096
216.00482	33128
216.02623	33135
216.04762	33008
216.06903	33139
216.09044	33232
216.11185	33071
216.13326	33083
216.15466	33508
216.17607	33442
216.19748	33319
216.21887	33274
216.24028	33287
216.26169	33537
216.2831	33683
216.3045	33582
216.3259	33633
216.34731	33692
216.36871	33682
216.39012	33475
216.41151	33263
216.43292	33175
216.45433	33092
216.47572	33123
216.49713	33250
216.51854	33406
216.53993	33321
216.56134	33339
216.58273	33564
216.60414	33510
216.62555	33641
216.64694	33611
216.66835	33682
216.68974	33798
216.71115	33754
216.73254	33698
216.75395	33651
216.77534	33765
216.79675	33869
216.81815	33799
216.83955	33926
216.86095	34127
216.88235	34389
216.90375	34209
216.92514	33989
216.94655	34087
216.96794	34144
216.98935	34376
217.01074	34456
217.03214	34593
217.05354	34562
217.07494	34485
217.09633	34503
217.11774	34378
217.13913	34313
217.16052	34270
217.18192	34423
217.20332	34495
217.22472	34369
217.24611	34357
217.2675	34372
217.28891	34308
217.3103	34328
217.3317	34222
217.35309	34110
217.37448	34030
217.39587	33956
217.41727	34029
217.43867	33997
217.46007	33850
217.48146	33915
217.50285	34119
217.52425	34230
217.54564	34375
217.56703	34415
217.58842	34410
217.60982	34533
217.63121	34328
217.6526	34239
217.674	34235
217.69539	34057
217.71678	34027
217.73817	33836
217.75957	33757
217.78096	33814
217.80235	33794
217.82373	33638
217.84512	33628
217.86652	33509
217.88791	33519
217.9093	33300
217.93069	33404
217.95209	33769
217.97346	33825
217.99486	33817
218.01625	33666
218.03764	33686
218.05902	33714
218.08041	33627
218.10181	33593
218.1232	33520
218.14458	33488
218.16597	33341
218.18736	33388
218.20874	33387
218.23013	33422
218.25153	33351
218.2729	33346
218.2943	33684
218.31567	33777
218.33707	33835
218.35846	33705
218.37984	33593
218.40123	33395
218.42261	33457
218.444	33624
218.46538	33852
218.48677	34080
218.50815	34190
218.52954	34034
218.55092	34061
218.57231	33939
218.59369	33894
218.61507	33879
218.63646	33981
218.65784	33966
218.67923	33712
218.70061	33570
218.72198	33566
218.74338	33510
218.76476	33516
218.78613	33287
218.80753	33215
218.8289	33301
218.85028	33216
218.87166	33281
218.89305	33333
218.91443	33201
218.93581	33171
218.95718	33411
218.97858	33628
218.99995	33535
219.02133	33576
219.04271	33488
219.06409	33525
219.08546	33383
219.10686	33197
219.12823	33197
219.14961	33228
219.17099	33130
219.19237	32884
219.21375	32731
219.23512	33070
219.2565	33029
219.27788	32996
219.29926	32879
219.32063	32945
219.34201	32814
219.36339	32731
219.38477	32608
219.40614	32812
219.42752	32878
219.4489	32893
219.47028	32967
219.49165	32924
219.51303	32762
219.53439	32593
219.55577	32504
219.57715	32601
219.59853	32422
219.6199	32551
219.64128	32495
219.66264	32466
219.68402	32465
219.7054	32209
219.72678	32405
219.74814	32705
219.76952	32735
219.79089	32690
219.81227	32566
219.83363	32453
219.85501	32370
219.87639	32339
219.89775	32450
219.91913	32720
219.94051	32985
219.96187	32828
219.98325	32719
220.00461	32718
220.02599	32902
220.04735	32848
220.06873	32725
220.0901	32729
220.11147	32635
220.13284	32541
220.15421	32496
220.17558	32510
220.19695	32645
220.21832	32589
220.23969	32427
220.26105	32317
220.28242	32216
220.30379	32197
220.32516	32212
220.34653	32282
220.36789	32284
220.38927	32290
220.41063	32312
220.43199	32490
220.45337	32470
220.47473	32428
220.49609	32325
220.51747	32241
220.53883	32086
220.5602	32028
220.58156	32076
220.60294	32075
220.6243	32198
220.64566	31912
220.66702	31849
220.68839	32051
220.70976	32185
220.73112	32211
220.75249	32234
220.77385	32142
220.79521	32099
220.81657	31866
220.83794	31773
220.8593	31686
220.88066	31578
220.90202	31719
220.92339	31770
220.94475	31888
220.96611	31780
220.98747	31634
221.00883	31399
221.0302	31328
221.05156	31316
221.07292	31300
221.09428	31373
221.11565	31508
221.13701	31644
221.15837	31448
221.17973	31312
221.2011	31405
221.22246	31442
221.2438	31422
221.26517	31555
221.28653	31502
221.30789	31502
221.32925	31261
221.3506	31181
221.37196	31198
221.39333	31192
221.41469	31315
221.43604	31341
221.4574	31631
221.47876	31745
221.50011	31797
221.52147	31706
221.54283	31798
221.56418	31922
221.58554	31879
221.6069	31896
221.62825	32112
221.64961	32120
221.67096	31968
221.69232	31775
221.71368	31721
221.73503	31826
221.75639	31696
221.77774	31827
221.7991	31913
221.82045	31876
221.84181	31801
221.86316	31735
221.88451	31858
221.90587	31677
221.92722	31773
221.94858	31889
221.96992	31928
221.99127	32018
222.01263	31765
222.03398	31746
222.05534	31815
222.07669	31971
222.09804	31962
222.11938	32168
222.14075	32344
222.16209	32376
222.18344	32276
222.2048	31929
222.22615	31745
222.2475	31687
222.26884	31707
222.29019	31699
222.31155	31793
222.3329	31873
222.35425	31756
222.3756	31719
222.39694	31808
222.41829	31875
222.43964	31868
222.46098	31904
222.48235	32064
222.50369	32021
222.52504	32052
222.54639	31921
222.56773	31981
222.58908	31977
222.61043	31921
222.63177	31910
222.65312	32335
222.67447	32453
222.69582	32423
222.71715	32357
222.73849	32223
222.75984	32198
222.78119	32395
222.80254	32482
222.82388	32606
222.84523	32853
222.86658	32903
222.88791	32900
222.90926	32786
222.9306	32855
222.95195	32953
222.9733	33079
222.99463	33143
223.01598	33056
223.03732	33109
223.05867	32950
223.08	33090
223.10135	33115
223.1227	33024
223.14403	33034
223.16537	32919
223.18672	32914
223.20805	32918
223.2294	32982
223.25073	33046
223.27208	33038
223.29343	33092
223.31476	33228
223.33611	33481
223.35744	33498
223.37878	33587
223.40012	33570
223.42146	33598
223.44279	33435
223.46414	33283
223.48547	33179
223.50682	33132
223.52815	33103
223.54948	32945
223.57083	33028
223.59216	33050
223.61349	32974
223.63484	33054
223.65617	32813
223.67752	32863
223.69885	32681
223.72018	32685
223.74152	32887
223.76286	33282
223.78419	33223
223.80553	33321
223.82686	33321
223.84821	33157
223.86954	33157
223.89087	33187
223.9122	33247
223.93353	33411
223.95488	33424
223.97621	33601
223.99754	33583
224.01888	33580
224.04021	33516
224.06154	33554
224.08287	33733
224.1042	34267
224.12553	34500
224.14687	34563
224.1682	34618
224.18953	34324
224.21086	34153
224.23219	34052
224.25352	34407
224.27486	34633
224.29619	34952
224.31752	35038
224.33885	35002
224.36018	35074
224.38152	34990
224.40285	34804
224.42418	34871
224.4455	34992
224.46683	34875
224.48816	34712
224.50949	34479
224.53082	34455
224.55214	34347
224.57347	34398
224.5948	34469
224.61613	34454
224.63745	34632
224.65878	34799
224.68011	34726
224.70145	34826
224.72276	34853
224.74409	34948
224.76541	35270
224.78674	35559
224.80807	35559
224.82939	35698
224.85072	35745
224.87204	35888
224.89337	35872
224.9147	35539
224.93602	35402
224.95735	35488
224.97867	35479
225	35112
225.02132	35364
225.04265	36063
225.06396	35857
225.08528	36132
225.10661	36269
225.12793	36382
225.14926	36268
225.17058	36161
225.19189	36320
225.21323	36447
225.23454	36298
225.25586	36569
225.27719	36560
225.29851	36698
225.31982	36530
225.34116	36447
225.36247	36490
225.38379	36423
225.40511	36422
225.42644	36592
225.44775	36701
225.46907	36817
225.49039	36757
225.5117	36699
225.53304	36899
225.55435	37016
225.57567	37057
225.59698	37183
225.6183	37065
225.63962	37054
225.66093	37225
225.68225	36927
225.70357	37138
225.72488	37401
225.7462	37415
225.76752	37378
225.78883	37613
225.81015	37434
225.83147	37715
225.85278	37690
225.8741	37533
225.89542	37908
225.91673	37797
225.93805	37793
225.95937	37723
225.98068	37860
226.00198	37843
226.0233	37733
226.04462	37741
226.06593	37751
226.08725	37990
226.10855	38008
226.12987	37902
226.15118	37824
226.1725	38081
226.1938	38135
226.21512	38278
226.23643	38259
226.25775	38287
226.27905	38402
226.30037	38247
226.32167	38423
226.34299	38223
226.3643	38146
226.3856	38405
226.40692	38471
226.42824	38370
226.44954	38324
226.47086	38464
226.49216	38463
226.51347	38499
226.53477	38284
226.55609	38278
226.57739	38245
226.59871	38025
226.62001	37714
226.64131	37370
226.66263	37373
226.68393	37404
226.70525	37319
226.72655	37371
226.74785	37827
226.76917	37519
226.79047	37342
226.81177	37532
226.83308	37368
226.85439	37365
226.87569	37417
226.897	37524
226.9183	38068
226.93961	37682
226.96091	37843
226.98222	37963
227.00352	38167
227.02483	38315
227.04613	38362
227.06743	38345
227.08873	38402
227.11005	38278
227.13135	37919
227.15265	37868
227.17395	37954
227.19525	37974
227.21655	38126
227.23785	38312
227.25916	38653
227.28046	38617
227.30176	38798
227.32306	38580
227.34436	38657
227.36566	38587
227.38696	38734
227.40826	39097
227.42957	39231
227.45087	39340
227.47217	39128
227.49347	39045
227.51476	38870
227.53606	38786
227.55736	38790
227.57866	39154
227.59996	39244
227.62126	39137
227.64255	39317
227.66385	39218
227.68515	39473
227.70645	39460
227.72774	39427
227.74904	39463
227.77034	39731
227.79163	39729
227.81293	39446
227.83423	39415
227.85551	39464
227.87682	39287
227.89812	39820
227.9194	39655
227.9407	40280
227.96199	40041
227.98329	39950
228.00459	40123
228.02588	39739
228.04718	39943
228.06847	39990
228.08977	40024
228.11105	40386
228.13234	40364
228.15364	40573
228.17493	40358
228.19623	40562
228.21751	40916
228.23882	40529
228.2601	40770
228.28139	40844
228.30269	40991
228.32397	40938
228.34526	40972
228.36656	40801
228.38785	40951
228.40913	40783
228.43042	41078
228.45172	41297
228.47301	41575
228.49429	41508
228.51558	41420
228.53688	41544
228.55817	41405
228.57945	41783
228.60074	41766
228.62202	42100
228.64331	42416
228.6646	42228
228.6859	42451
228.70718	42433
228.72847	42628
228.74976	42783
228.77104	42881
228.79233	42921
228.81361	43256
228.8349	42782
228.85619	42836
228.87747	43053
228.89876	42960
228.92004	43253
228.94133	42869
228.9626	43150
228.98389	43021
229.00517	43104
229.02646	43301
229.04774	43741
229.06903	43834
229.09032	43531
229.11159	44188
229.13287	44177
229.15416	44324
229.17545	44446
229.19673	44640
229.218	44412
229.23929	44585
229.26057	44347
229.28185	44539
229.30313	44444
229.32442	44290
229.34569	44363
229.36697	44414
229.38826	44565
229.40953	44486
229.43082	44244
229.45209	44341
229.47337	44411
229.49466	44297
229.51593	44331
229.53722	44442
229.55849	44562
229.57977	44618
229.60104	44515
229.62233	44381
229.6436	44020
229.66489	43964
229.68616	43916
229.70743	43656
229.72871	43601
229.74998	43236
229.77126	43436
229.79254	42886
229.81381	42880
229.8351	42938
229.85637	42708
229.87764	42750
229.89891	42544
229.9202	42893
229.94147	42486
229.96274	42793
229.98401	42168
230.00529	42253
230.02657	42083
230.04784	42398
230.06911	42584
230.09038	42251
230.11165	42598
230.13293	42217
230.15421	42341
230.17548	41979
230.19675	41822
230.21802	41762
230.23929	41664
230.26056	41600
230.28183	41261
230.3031	40914
230.32437	41169
230.34564	40847
230.36691	40599
230.38818	40463
230.40945	40262
230.43073	40307
230.452	40522
230.47327	40303
230.49454	40340
230.51579	40159
230.53706	40050
230.55833	40397
230.57961	40449
230.60088	40294
230.62215	40325
230.6434	40462
230.66467	39935
230.68594	40178
230.70721	39936
230.72847	39840
230.74974	39834
230.77101	39434
230.79227	39484
230.81354	39509
230.83481	39586
230.85606	39875
230.87733	39761
230.89861	39932
230.91986	39777
230.94113	39722
230.96239	39280
230.98366	39396
231.00491	39245
231.02618	39445
231.04744	39323
231.06871	39609
231.08997	39630
231.11124	39682
231.13249	39233
231.15376	39467
231.17502	39362
231.19629	39450
231.21754	39633
231.2388	39609
231.26007	39765
231.28133	39867
231.30258	39631
231.32385	39841
231.34511	40001
231.36636	40135
231.38763	39932
231.40889	40061
231.43015	39977
231.4514	40075
231.47266	40053
231.49393	40248
231.51518	40028
231.53644	40145
231.55769	40308
231.57895	40308
231.6002	40350
231.62148	40733
231.64273	40688
231.66399	40590
231.68524	40776
231.7065	40586
231.72775	40801
231.74901	40694
231.77026	40768
231.79152	40833
231.81277	40576
231.83403	40429
231.85529	40407
231.87654	40348
231.8978	40589
231.91905	40736
231.94031	40486
231.96155	40666
231.9828	40641
232.00406	40535
232.02531	40661
232.04657	40397
232.06783	40504
232.08907	40769
232.11032	40602
232.13158	40559
232.15283	40252
232.17407	40436
232.19533	40348
232.21658	40608
232.23784	40512
232.25908	40284
232.28033	40711
232.30159	40718
232.32283	40617
232.34409	40302
232.36533	40333
232.38658	39948
232.40784	39895
232.42908	39420
232.45033	39479
232.47157	39232
232.49283	39447
232.51407	39696
232.53532	39571
232.55656	39562
232.57782	39528
232.59906	39414
232.6203	39271
232.64156	39445
232.6628	39793
232.68405	39772
232.70529	40009
232.72653	40301
232.74779	39961
232.76903	40242
232.79027	40035
232.81152	40804
232.83276	40466
232.854	40631
232.87524	40547
232.8965	40458
232.91774	40280
232.93898	40167
232.96022	39957
232.98146	40310
233.00272	40306
233.02396	40518
233.0452	40709
233.06644	40807
233.08768	40629
233.10892	40830
233.13016	41024
233.1514	41060
233.17264	41324
233.19388	41505
233.21512	41586
233.23636	41860
233.2576	41573
233.27884	41615
233.30008	41627
233.32132	41634
233.34256	41616
233.3638	41888
233.38504	41683
233.40628	41696
233.42752	41668
233.44876	42039
233.46999	41767
233.49123	41958
233.51247	42120
233.53371	41986
233.55495	42092
233.57617	41962
233.59741	42082
233.61865	42078
233.63989	42066
233.66112	42420
233.68236	42547
233.7036	42622
233.72482	42831
233.74606	42717
233.7673	42565
233.78853	42380
233.80977	42423
233.83099	42429
233.85223	42426
233.87347	42641
233.8947	42585
233.91594	42761
233.93716	42767
233.9584	42857
233.97963	42810
234.00087	42840
234.02209	42883
234.04332	42740
234.06456	42740
234.08578	42746
234.10703	42538
234.12825	42767
234.14948	42553
234.17072	42517
234.19194	42493
234.21317	43121
234.23441	43162
234.25563	43349
234.27686	43359
234.29808	43569
234.31932	43439
234.34055	43147
234.36177	43551
234.383	43653
234.40424	43915
234.42546	44270
234.44669	44059
234.46791	44071
234.48914	44457
234.51036	44312
234.53159	44347
234.55281	44185
234.57404	44453
234.59526	44319
234.61649	44389
234.63773	44302
234.65895	44322
234.68016	44458
234.70139	44012
234.72261	43948
234.74384	44100
234.76506	43899
234.78629	43687
234.80751	43927
234.82874	44131
234.84996	43983
234.87119	44472
234.89241	44240
234.91362	44727
234.93484	44392
234.95607	44547
234.97729	44481
234.9985	44389
235.01973	44526
235.04095	44590
235.06218	44449
235.08339	44444
235.10461	44439
235.12584	44279
235.14705	44382
235.16827	44186
235.1895	44095
235.21071	44246
235.23193	44230
235.25314	44211
235.27437	43811
235.29559	43939
235.3168	43963
235.33803	44438
235.35924	44140
235.38046	44192
235.40167	44117
235.4229	44192
235.44411	44133
235.46532	43855
235.48654	44069
235.50775	44201
235.52898	44163
235.55019	44242
235.5714	44136
235.59262	44081
235.61383	44032
235.63504	44110
235.65627	43873
235.67747	44318
235.69868	44174
235.71989	44363
235.74112	44306
235.76233	44155
235.78354	44233
235.80475	44331
235.82596	44585
235.84718	44494
235.86839	44911
235.8896	44478
235.91081	44586
235.93202	44776
235.95323	44861
235.97444	44632
235.99565	44798
236.01686	44672
236.03807	44465
236.05928	44512
236.08049	44465
236.1017	44312
236.12291	44267
236.14412	43954
236.16533	44130
236.18654	43649
236.20775	44242
236.22896	43938
236.25017	44058
236.27136	43932
236.29257	44029
236.31378	43853
236.33499	44071
236.3562	44028
236.3774	44062
236.39861	43900
236.41982	43831
236.44102	43971
236.46222	43675
236.48343	43570
236.50464	43747
236.52583	43567
236.54704	43197
236.56825	43280
236.58945	43010
236.61066	43055
236.63187	43265
236.65306	42851
236.67427	42881
236.69547	42523
236.71667	42485
236.73787	42047
236.75908	42151
236.78027	42119
236.80148	42247
236.82268	42033
236.84389	41885
236.86508	41997
236.88629	41475
236.90749	41757
236.92868	41339
236.94989	41341
236.97108	41380
236.99228	41684
237.01349	41509
237.03468	41548
237.05588	41339
237.07709	40981
237.09828	41570
237.11948	41202
237.14067	40976
237.16187	41013
237.18307	40800
237.20427	40479
237.22546	40469
237.24666	40160
237.26785	40269
237.28905	40349
237.31024	40122
237.33145	40015
237.35265	40234
237.37384	40000
237.39503	40141
237.41623	40106
237.43742	39975
237.45862	39797
237.47981	39856
237.50101	39478
237.5222	39698
237.5434	39768
237.56458	39392
237.58577	39419
237.60696	39165
237.62816	39023
237.64935	38794
237.67055	38832
237.69174	38821
237.71292	38696
237.73412	38808
237.75531	38433
237.7765	38621
237.7977	38573
237.81888	38405
237.84007	38337
237.86127	38125
237.88245	38154
237.90364	37568
237.92484	37373
237.94601	37122
237.96721	37158
237.9884	36941
238.00958	36964
238.03078	37208
238.05196	36973
238.07315	37207
238.09433	36800
238.11552	36654
238.1367	36381
238.1579	36074
238.17908	35789
238.20027	35820
238.22145	35415
238.24265	35156
238.26382	35176
238.285	35203
238.3062	35209
238.32738	35097
238.34857	35046
238.36975	35003
238.39093	34551
238.41211	34673
238.4333	34463
238.45448	34821
238.47566	34658
238.49686	34602
238.51804	34273
238.53922	34284
238.56039	34351
238.58157	34323
238.60275	34216
238.62395	34091
238.64513	33938
238.66631	33598
238.68748	33145
238.70866	33043
238.72984	32728
238.75102	32776
238.7722	32627
238.79338	32798
238.81456	32823
238.83574	32535
238.85692	32380
238.8781	32308
238.89928	32328
238.92046	32369
238.94164	32264
238.96281	32209
238.98399	32193
239.00516	31879
239.02634	31791
239.04752	31721
239.0687	31371
239.08987	31272
239.11105	31151
239.13222	31038
239.1534	30925
239.17458	30767
239.19576	30818
239.21692	30539
239.2381	30541
239.25928	30403
239.28044	30198
239.30162	30113
239.3228	30034
239.34396	29787
239.36514	29776
239.38631	29632
239.40749	29455
239.42865	29475
239.44983	29562
239.47099	29471
239.49217	29476
239.51334	29247
239.53452	29146
239.55568	28878
239.57686	28671
239.59802	28595
239.6192	28492
239.64037	28493
239.66153	28458
239.68271	28280
239.70387	28197
239.72504	28134
239.74622	27953
239.76738	27838
239.78854	27716
239.80972	27575
239.83089	27359
239.85205	27315
239.87321	27217
239.89438	27022
239.91556	26779
239.93672	26343
239.95789	26331
239.97905	26488
240.00021	26458
240.02138	26351
240.04254	26218
240.06372	25990
240.08488	25781
240.10605	25745
240.12721	25788
240.14838	25778
240.16954	25690
240.1907	25665
240.21187	25486
240.23303	25378
240.25418	25301
240.27534	25201
240.29651	25037
240.31767	25024
240.33884	24803
240.36	24687
240.38116	24597
240.40233	24402
240.42348	24312
240.44464	24140
240.46581	24006
240.48697	23847
240.50812	23802
240.52928	23699
240.55045	23572
240.57161	23555
240.59276	23328
240.61392	23296
240.63509	23316
240.65623	23272
240.6774	23180
240.69855	22934
240.71971	22782
240.74088	22751
240.76202	22736
240.78319	22545
240.80434	22426
240.8255	22360
240.84665	22219
240.86781	21919
240.88896	21703
240.91013	21612
240.93127	21488
240.95242	21306
240.97359	21203
240.99474	21104
241.01588	21014
241.03705	20732
241.0582	20507
241.07935	20491
241.10051	20348
241.12166	20261
241.14281	20286
241.16397	20115
241.18512	20031
241.20627	19804
241.22742	19687
241.24857	19609
241.26973	19591
241.29088	19556
241.31203	19419
241.33318	19313
241.35432	19126
241.37547	18983
241.39662	18845
241.41777	18787
241.43892	18850
241.46007	18731
241.48122	18777
241.50237	18709
241.52351	18497
241.54466	18315
241.56581	18265
241.58696	18306
241.60811	18312
241.62926	18212
241.65041	18105
241.67155	18166
241.6927	18187
241.71384	18137
241.73499	18062
241.75613	17850
241.77728	17715
241.79843	17648
241.81956	17492
241.84071	17471
241.86186	17472
241.88301	17402
241.90414	17148
241.92529	17050
241.94644	16951
241.96758	16891
241.98872	16828
242.00986	16844
242.03101	16773
242.05215	16545
242.07329	16544
242.09444	16524
242.11557	16386
242.13672	16319
242.15785	16262
242.179	16243
242.20013	16106
242.22128	15986
242.24242	15930
242.26357	15929
242.2847	15907
242.30583	15774
242.32698	15606
242.34811	15617
242.36925	15628
242.3904	15537
242.41153	15432
242.43266	15343
242.45381	15207
242.47495	15074
242.49608	14977
242.51721	14882
242.53835	14843
242.55949	14750
242.58063	14649
242.60176	14634
242.62289	14621
242.64403	14490
242.66516	14415
242.68629	14295
242.70744	14254
242.72858	14214
242.74971	14264
242.77084	14265
242.79198	14236
242.81311	13997
242.83424	13925
242.85538	13947
242.87651	13828
242.89763	13827
242.91876	13760
242.9399	13689
242.96103	13529
242.98216	13392
243.0033	13332
243.02443	13289
243.04556	13178
243.06668	13093
243.08781	13123
243.10895	13198
243.13008	13143
243.1512	13041
243.17233	12959
243.19347	12797
243.2146	12780
243.23572	12704
243.25685	12730
243.27797	12670
243.2991	12628
243.32024	12497
243.34135	12398
243.36249	12295
243.38361	12270
243.40474	12185
243.42587	12194
243.44699	12136
243.46812	12072
243.48924	11960
243.51036	11888
243.53149	11847
243.55261	11693
243.57375	11632
243.59486	11607
243.616	11505
243.63712	11431
243.65823	11372
243.67937	11269
243.70049	11190
243.7216	11158
243.74272	11149
243.76385	11087
243.78497	11061
243.80609	11047
243.82721	10977
243.84834	10909
243.86946	10736
243.89058	10621
243.9117	10496
243.93282	10420
243.95393	10456
243.97505	10346
243.99619	10270
244.0173	10185
244.03842	10204
244.05954	10142
244.08066	10056
244.10178	10051
244.12289	9974
244.14401	9962
244.16513	9926
244.18625	9920
244.20735	9967
244.22847	9963
244.24959	9859
244.27071	9837
244.29182	9787
244.31294	9685
244.33406	9682
244.35516	9684
244.37628	9540
244.3974	9459
244.41852	9489
244.43964	9348
244.46074	9230
244.48186	9373
244.50298	9263
244.52408	9341
244.5452	9274
244.56631	9210
244.58742	9127
244.60854	9063
244.62964	9033
244.65076	9015
244.67188	8980
244.69298	8943
244.7141	9004
244.7352	8905
244.75632	8830
244.77742	8806
244.79854	8782
244.81964	8738
244.84074	8683
244.86186	8649
244.88297	8591
244.90408	8494
244.92519	8434
244.94629	8446
244.96741	8424
244.98851	8343
245.00961	8299
245.03073	8223
245.05183	8258
245.07294	8196
245.09404	8159
245.11516	8086
245.13626	8041
245.15736	8083
245.17847	8092
245.19957	8083
245.22067	7993
245.24178	7967
245.26289	7890
245.284	7876
245.3051	7832
245.3262	7799
245.34731	7790
245.36841	7703
245.38951	7665
245.41061	7571
245.43172	7551
245.45282	7523
245.47392	7533
245.49503	7481
245.51611	7460
245.53722	7402
245.55832	7400
245.57942	7327
245.60052	7279
245.62163	7226
245.64272	7229
245.66382	7173
245.68492	7135
245.70602	7079
245.72711	7065
245.74821	7028
245.76932	6992
245.79042	6973
245.81151	6902
245.83261	6923
245.85371	6937
245.8748	6896
245.8959	6843
245.91699	6813
245.9381	6773
245.95918	6732
245.98029	6684
246.00137	6708
246.02248	6647
246.04356	6613
246.06467	6620
246.08575	6619
246.10686	6561
246.12794	6512
246.14905	6500
246.17014	6461
246.19122	6360
246.21233	6431
246.23341	6391
246.2545	6331
246.2756	6312
246.29669	6293
246.31778	6246
246.33887	6242
246.35997	6231
246.38106	6210
246.40215	6158
246.42323	6143
246.44432	6114
246.46542	6037
246.48651	6030
246.5076	6057
246.52869	6048
246.54977	6017
246.57086	5988
246.59195	5966
246.61304	5983
246.63412	5919
246.65521	5942
246.6763	5883
246.69739	5816
246.71848	5766
