Date and Time:                Mon Jan 30 17:14:11.000 2023
Software Version:             4.31.30023.0
Temperature (C):              -40
Model:                        DU940P_BU2
Data Type:                    Counts
Acquisition Mode:             Single Scan
Trigger Mode:                 Internal
Exposure Time (secs):         40
Readout Mode:                 Full Vertical Binning
Horizontal binning:           1
Extended Dynamic Range:       off
Horizontally flipped:         false
Vertical Shift Speed (usecs): 14.51
Pixel Readout Rate (MHz):     3
Baseline Clamp:               ON
Clock Amplitude:              Normal
Output Amplifier:             High Capacity
Serial Number:                23634
Pre-Amplifier Gain:           1.000000
Spurious Noise Filter Mode:   No Filter
Photon counted:               false
Data Averaging Filter Mode:   No Filter
SR500i:
Serial Number:                
Wavelength (nm):              225
Grating Groove Density (l/mm):1199.47
Grating Blaze:                500
Output Flipper Port:          Direct
Accessory Output Port 1:      Off
Accessory Output Port 2:      Off
Accessory Output Port 3:      Off
Accessory Input Port:         On



203.08546	6159
203.10698	5920
203.12848	5931
203.14999	5957
203.17151	5979
203.19302	6050
203.21452	6068
203.23604	6121
203.25755	6122
203.27905	6130
203.30057	6164
203.32208	6125
203.34358	6133
203.3651	6192
203.38661	6216
203.40811	6262
203.42963	6324
203.45113	6338
203.47264	6383
203.49416	6438
203.51566	6424
203.53717	6470
203.55867	6540
203.58018	6511
203.60168	6593
203.6232	6600
203.6447	6672
203.66621	6724
203.68771	6716
203.70923	6799
203.73073	6867
203.75224	6892
203.77374	6887
203.79526	6944
203.81676	6970
203.83827	7001
203.85977	7043
203.88127	7112
203.90279	7176
203.92429	7229
203.94579	7258
203.9673	7236
203.9888	7253
204.01031	7242
204.03181	7346
204.05331	7381
204.07481	7390
204.09633	7426
204.11783	7511
204.13933	7501
204.16084	7580
204.18234	7615
204.20384	7680
204.22534	7695
204.24684	7731
204.26836	7803
204.28986	7777
204.31136	7857
204.33286	7888
204.35435	7985
204.37587	7954
204.39737	8020
204.41887	8068
204.44037	8045
204.46187	8138
204.48337	8135
204.50487	8126
204.52637	8181
204.54787	8209
204.56937	8199
204.59087	8244
204.61237	8299
204.63387	8376
204.65536	8369
204.67688	8425
204.69836	8454
204.71986	8505
204.74136	8494
204.76286	8553
204.78436	8569
204.80586	8605
204.82736	8716
204.84886	8700
204.87036	8754
204.89186	8796
204.91336	8937
204.93486	8986
204.95636	9009
204.97784	9020
204.99934	9038
205.02084	9122
205.04234	9164
205.06384	9167
205.08534	9225
205.10683	9269
205.12833	9379
205.14983	9387
205.17133	9400
205.19281	9516
205.21431	9567
205.23581	9597
205.25731	9561
205.27879	9673
205.30029	9751
205.32179	9762
205.34328	9825
205.36478	9932
205.38628	10045
205.40776	10020
205.42926	10021
205.45074	10038
205.47224	10103
205.49374	10084
205.51523	10140
205.53673	10286
205.55821	10342
205.57971	10344
205.6012	10377
205.6227	10491
205.6442	10490
205.66568	10562
205.68718	10627
205.70866	10703
205.73015	10697
205.75165	10725
205.77313	10715
205.79463	10784
205.81612	10787
205.83762	10844
205.8591	10893
205.88058	10954
205.90208	11013
205.92357	11001
205.94507	10993
205.96655	11081
205.98804	11109
206.00954	11183
206.03102	11238
206.05251	11285
206.07401	11313
206.09549	11354
206.11697	11457
206.13846	11537
206.15996	11557
206.18144	11540
206.20293	11606
206.22441	11634
206.24591	11733
206.2674	11768
206.28888	11926
206.31036	12036
206.33185	12101
206.35335	12192
206.37483	12256
206.39632	12382
206.4178	12413
206.43929	12451
206.46077	12439
206.48225	12515
206.50374	12561
206.52522	12669
206.54672	12694
206.56821	12789
206.58969	12854
206.61118	12967
206.63266	13043
206.65414	13201
206.67563	13342
206.69711	13336
206.7186	13437
206.74008	13424
206.76157	13442
206.78304	13605
206.80452	13656
206.826	13779
206.84749	13891
206.86897	13940
206.89046	13999
206.91194	14049
206.93343	14122
206.95491	14136
206.97638	14248
206.99786	14362
207.01935	14399
207.04083	14376
207.06232	14516
207.0838	14557
207.10527	14634
207.12675	14584
207.14824	14541
207.16972	14653
207.19119	14757
207.21268	14853
207.23416	14847
207.25563	14902
207.27711	14982
207.2986	15080
207.32007	15176
207.34155	15268
207.36304	15346
207.38451	15484
207.40599	15631
207.42747	15673
207.44894	15675
207.47043	15702
207.4919	15751
207.51338	15806
207.53487	15757
207.55634	15837
207.57782	15997
207.59929	16137
207.62077	16104
207.64224	16209
207.66373	16225
207.6852	16329
207.70668	16328
207.72815	16397
207.74962	16493
207.7711	16761
207.79257	16816
207.81406	16845
207.83553	16920
207.85701	16987
207.87848	17013
207.89995	16959
207.92143	17044
207.9429	17159
207.96437	17218
207.98586	17270
208.00732	17349
208.02879	17338
208.05028	17360
208.07175	17382
208.09322	17584
208.11469	17727
208.13617	17872
208.15764	18010
208.17911	17919
208.20058	18038
208.22205	18054
208.24353	18129
208.265	18280
208.28647	18529
208.30794	18592
208.32941	18641
208.35088	18646
208.37236	18713
208.39383	18759
208.4153	18869
208.43677	18971
208.45824	19009
208.47971	19026
208.50117	19027
208.52264	18955
208.54411	19071
208.56558	19110
208.58705	19131
208.60852	19078
208.62999	19180
208.65146	19138
208.67293	19199
208.6944	19429
208.71587	19473
208.73734	19532
208.7588	19768
208.78027	19794
208.80174	19976
208.82321	20037
208.84467	20009
208.86613	19945
208.8876	20007
208.90907	20015
208.93054	20020
208.95201	20117
208.97346	20064
208.99493	20115
209.0164	20044
209.03787	20195
209.05934	20235
209.0808	20394
209.10226	20288
209.12373	20174
209.1452	20271
209.16666	20351
209.18813	20403
209.20959	20572
209.23105	20679
209.25252	20849
209.27399	20794
209.29544	20833
209.31691	20938
209.33836	20970
209.35983	20985
209.3813	21072
209.40276	21129
209.42422	21122
209.44568	21237
209.46715	21208
209.4886	21337
209.51007	21296
209.53152	21336
209.55299	21443
209.57445	21703
209.59592	21876
209.61737	21919
209.63884	21825
209.66029	21884
209.68176	21900
209.70322	21960
209.72469	21958
209.74614	22247
209.76759	22312
209.78906	22312
209.81052	22239
209.83197	22299
209.85344	22399
209.87489	22460
209.89635	22495
209.91782	22640
209.93927	22558
209.96072	22614
209.98219	22654
210.00365	22747
210.0251	22905
210.04655	22920
210.06802	23036
210.08948	23171
210.11093	23087
210.13239	23144
210.15384	23067
210.17531	23238
210.19676	23391
210.21822	23454
210.23967	23633
210.26112	23693
210.28258	23851
210.30403	23876
210.32549	23976
210.34695	24079
210.36841	24056
210.38986	24068
210.41132	24022
210.43277	24109
210.45422	24227
210.47568	24342
210.49713	24582
210.51859	24604
210.54004	24610
210.56149	24582
210.58295	24599
210.6044	24649
210.62585	24710
210.64729	24836
210.66875	24889
210.6902	25131
210.71165	25193
210.73311	25207
210.75456	25291
210.77602	25429
210.79747	25438
210.81891	25618
210.84036	25643
210.86182	25856
210.88327	25816
210.90472	25821
210.92616	25887
210.94762	25891
210.96907	25953
210.99052	26062
211.01196	26187
211.03342	26469
211.05487	26596
211.07631	26592
211.09776	26421
211.11922	26444
211.14066	26436
211.16211	26575
211.18356	26682
211.205	26798
211.22646	26855
211.24791	26819
211.26935	26697
211.2908	26611
211.31224	26653
211.33369	26812
211.35513	26905
211.37659	27082
211.39803	27116
211.41948	26960
211.44092	27079
211.46237	27167
211.48381	27177
211.50526	27239
211.5267	27287
211.54816	27421
211.5696	27407
211.59103	27325
211.61249	27341
211.63393	27545
211.65538	27459
211.67682	27624
211.69826	27708
211.71971	27879
211.74115	28030
211.76259	28024
211.78404	28101
211.80548	28046
211.82692	27980
211.84836	27813
211.86981	27794
211.89125	27932
211.91269	27901
211.93413	27844
211.95558	27905
211.97702	28192
211.99846	28014
212.0199	28002
212.04134	28070
212.06277	28060
212.08423	28071
212.10567	28186
212.12711	28372
212.14854	28645
212.16998	28722
212.19142	28684
212.21286	28775
212.2343	28789
212.25574	28742
212.27718	28766
212.29861	28770
212.32005	28768
212.34149	28785
212.36293	28875
212.38437	28830
212.40581	28933
212.42725	29071
212.44868	29001
212.47012	29210
212.49156	29490
212.513	29560
212.53444	29530
212.55588	29417
212.57732	29444
212.59874	29487
212.62018	29614
212.64162	29803
212.66306	30031
212.68449	30313
212.70593	30228
212.72736	30228
212.74879	30233
212.77023	30215
212.79167	30359
212.8131	30325
212.83453	30457
212.85597	30349
212.87741	30228
212.89883	30084
212.92027	30234
212.94171	30295
212.96313	30263
212.98457	30126
213.00601	30160
213.02744	30237
213.04887	30243
213.0703	30306
213.09174	30260
213.11317	30128
213.1346	30306
213.15604	30532
213.17746	30663
213.1989	30730
213.22032	30758
213.24176	30840
213.26318	30694
213.28462	30668
213.30605	30557
213.32748	30453
213.34891	30515
213.37033	30428
213.39177	30383
213.41319	30574
213.43463	30636
213.45605	30695
213.47748	30478
213.49892	30497
213.52034	30546
213.54176	30683
213.5632	30475
213.58463	30523
213.60605	30711
213.62749	30775
213.64891	30763
213.67033	31030
213.69177	31126
213.7132	30908
213.73462	30817
213.75604	30916
213.77747	31013
213.7989	30988
213.82033	30955
213.84175	30973
213.86317	31015
213.8846	30858
213.90602	30905
213.92744	31193
213.94888	31439
213.97031	31517
213.99173	31570
214.01315	31557
214.03458	31521
214.056	31413
214.07742	31575
214.09885	31851
214.12027	32002
214.14169	32106
214.16312	32172
214.18454	32156
214.20596	32140
214.22739	32104
214.24881	32048
214.27023	32027
214.29166	32107
214.31308	32204
214.33449	31976
214.35591	32007
214.37733	32125
214.39876	32077
214.42018	32075
214.4416	31949
214.46303	31770
214.48444	31737
214.50586	31798
214.52728	31932
214.54871	31895
214.57011	31970
214.59154	31987
214.61296	32001
214.63438	32110
214.65579	32152
214.67722	32093
214.69864	32055
214.72005	31946
214.74147	32057
214.76289	31938
214.7843	31976
214.80573	31955
214.82715	31878
214.84856	31574
214.86998	31554
214.89139	31706
214.91281	31804
214.93423	31755
214.95564	31793
214.97707	31745
214.99847	31525
215.0199	31522
215.04131	31472
215.06273	31705
215.08414	31612
215.10556	31614
215.12697	31813
215.14838	31822
215.1698	31640
215.19121	31397
215.21263	31357
215.23404	31375
215.25545	31418
215.27687	31468
215.29828	31574
215.31969	31621
215.34111	31585
215.36252	31461
215.38393	31668
215.40535	31867
215.42676	31892
215.44817	31929
215.46957	31813
215.491	31907
215.51241	31943
215.53381	31804
215.55522	31808
215.57663	31978
215.59805	32040
215.61946	31980
215.64087	32130
215.66228	32161
215.68369	32385
215.70509	32235
215.7265	32313
215.74792	32326
215.76933	32290
215.79074	32397
215.81215	32531
215.83356	32700
215.85497	32540
215.87637	32391
215.89778	32298
215.91919	32178
215.9406	32271
215.96201	32303
215.98341	32498
216.00482	32527
216.02623	32462
216.04762	32553
216.06903	32512
216.09044	32625
216.11185	32516
216.13326	32539
216.15466	32775
216.17607	32776
216.19748	32806
216.21887	32587
216.24028	32698
216.26169	32915
216.2831	33005
216.3045	32891
216.3259	33060
216.34731	33059
216.36871	32905
216.39012	32840
216.41151	32627
216.43292	32543
216.45433	32498
216.47572	32531
216.49713	32656
216.51854	32746
216.53993	32650
216.56134	32723
216.58273	32750
216.60414	32882
216.62555	32871
216.64694	32971
216.66835	33011
216.68974	33066
216.71115	33012
216.73254	32963
216.75395	32986
216.77534	33060
216.79675	33169
216.81815	33012
216.83955	33318
216.86095	33538
216.88235	33684
216.90375	33501
216.92514	33356
216.94655	33382
216.96794	33493
216.98935	33762
217.01074	33751
217.03214	33899
217.05354	33961
217.07494	33872
217.09633	33781
217.11774	33686
217.13913	33623
217.16052	33628
217.18192	33820
217.20332	33940
217.22472	33755
217.24611	33634
217.2675	33656
217.28891	33642
217.3103	33603
217.3317	33488
217.35309	33541
217.37448	33419
217.39587	33368
217.41727	33361
217.43867	33251
217.46007	33211
217.48146	33211
217.50285	33379
217.52425	33513
217.54564	33674
217.56703	33614
217.58842	33714
217.60982	33724
217.63121	33651
217.6526	33555
217.674	33515
217.69539	33414
217.71678	33283
217.73817	33178
217.75957	33093
217.78096	33111
217.80235	33106
217.82373	33056
217.84512	32899
217.86652	32859
217.88791	32781
217.9093	32740
217.93069	32770
217.95209	32964
217.97346	33092
217.99486	33089
218.01625	33008
218.03764	33062
218.05902	33070
218.08041	32917
218.10181	32873
218.1232	32826
218.14458	32896
218.16597	32813
218.18736	32699
218.20874	32780
218.23013	32782
218.25153	32656
218.2729	32667
218.2943	32931
218.31567	33229
218.33707	33203
218.35846	33044
218.37984	32898
218.40123	32886
218.42261	32878
218.444	33006
218.46538	33249
218.48677	33513
218.50815	33659
218.52954	33393
218.55092	33489
218.57231	33328
218.59369	33297
218.61507	33236
218.63646	33363
218.65784	33497
218.67923	33179
218.70061	33109
218.72198	33061
218.74338	33051
218.76476	32865
218.78613	32725
218.80753	32684
218.8289	32738
218.85028	32807
218.87166	32844
218.89305	32851
218.91443	32794
218.93581	32848
218.95718	32863
218.97858	33156
218.99995	33048
219.02133	33108
219.04271	33107
219.06409	32997
219.08546	32927
219.10686	32770
219.12823	32761
219.14961	32861
219.17099	32634
219.19237	32446
219.21375	32451
219.23512	32663
219.2565	32583
219.27788	32575
219.29926	32503
219.32063	32489
219.34201	32473
219.36339	32415
219.38477	32308
219.40614	32541
219.42752	32614
219.4489	32653
219.47028	32531
219.49165	32550
219.51303	32502
219.53439	32183
219.55577	32237
219.57715	32306
219.59853	32300
219.6199	32387
219.64128	32304
219.66264	32288
219.68402	32183
219.7054	32039
219.72678	32211
219.74814	32406
219.76952	32492
219.79089	32563
219.81227	32446
219.83363	32260
219.85501	32186
219.87639	32103
219.89775	32323
219.91913	32498
219.94051	32810
219.96187	32595
219.98325	32490
220.00461	32580
220.02599	32789
220.04735	32749
220.06873	32611
220.0901	32621
220.11147	32542
220.13284	32398
220.15421	32337
220.17558	32402
220.19695	32441
220.21832	32491
220.23969	32294
220.26105	32198
220.28242	32133
220.30379	32075
220.32516	32190
220.34653	32300
220.36789	32191
220.38927	32240
220.41063	32376
220.43199	32529
220.45337	32477
220.47473	32411
220.49609	32379
220.51747	32272
220.53883	32180
220.5602	32003
220.58156	32133
220.60294	32211
220.6243	32166
220.64566	31951
220.66702	31840
220.68839	32053
220.70976	32155
220.73112	32206
220.75249	32281
220.77385	32125
220.79521	32021
220.81657	31916
220.83794	31761
220.8593	31824
220.88066	31670
220.90202	31695
220.92339	31824
220.94475	31839
220.96611	31826
220.98747	31663
221.00883	31487
221.0302	31399
221.05156	31355
221.07292	31489
221.09428	31503
221.11565	31553
221.13701	31674
221.15837	31442
221.17973	31434
221.2011	31570
221.22246	31559
221.2438	31526
221.26517	31588
221.28653	31597
221.30789	31591
221.32925	31407
221.3506	31250
221.37196	31217
221.39333	31327
221.41469	31379
221.43604	31464
221.4574	31651
221.47876	31849
221.50011	31896
221.52147	31839
221.54283	31927
221.56418	32033
221.58554	31952
221.6069	32159
221.62825	32214
221.64961	32202
221.67096	32026
221.69232	31867
221.71368	31873
221.73503	31946
221.75639	31805
221.77774	32004
221.7991	31983
221.82045	31926
221.84181	31949
221.86316	31868
221.88451	31852
221.90587	31820
221.92722	31862
221.94858	31927
221.96992	31970
221.99127	31985
222.01263	31849
222.03398	31903
222.05534	31951
222.07669	32088
222.09804	32063
222.11938	32236
222.14075	32399
222.16209	32460
222.18344	32281
222.2048	32156
222.22615	31813
222.2475	31694
222.26884	31654
222.29019	31728
222.31155	31862
222.3329	31930
222.35425	31775
222.3756	31775
222.39694	31827
222.41829	31923
222.43964	31928
222.46098	32006
222.48235	31971
222.50369	32012
222.52504	32076
222.54639	31995
222.56773	32007
222.58908	31941
222.61043	31901
222.63177	32004
222.65312	32206
222.67447	32415
222.69582	32299
222.71715	32281
222.73849	32191
222.75984	32184
222.78119	32391
222.80254	32468
222.82388	32685
222.84523	32823
222.86658	32797
222.88791	32638
222.90926	32748
222.9306	32836
222.95195	32855
222.9733	32952
222.99463	33092
223.01598	32995
223.03732	33000
223.05867	32820
223.08	32884
223.10135	32911
223.1227	32946
223.14403	32881
223.16537	32749
223.18672	32733
223.20805	32699
223.2294	32771
223.25073	32834
223.27208	32820
223.29343	32943
223.31476	33038
223.33611	33274
223.35744	33267
223.37878	33235
223.40012	33388
223.42146	33352
223.44279	33268
223.46414	33008
223.48547	32980
223.50682	32964
223.52815	32850
223.54948	32663
223.57083	32675
223.59216	32806
223.61349	32648
223.63484	32702
223.65617	32482
223.67752	32475
223.69885	32414
223.72018	32387
223.74152	32449
223.76286	32841
223.78419	32933
223.80553	32920
223.82686	32940
223.84821	32855
223.86954	32791
223.89087	32813
223.9122	32932
223.93353	33059
223.95488	32981
223.97621	33169
223.99754	33092
224.01888	33133
224.04021	33072
224.06154	33175
224.08287	33283
224.1042	33735
224.12553	34080
224.14687	34152
224.1682	34138
224.18953	33819
224.21086	33656
224.23219	33585
224.25352	33862
224.27486	34091
224.29619	34344
224.31752	34454
224.33885	34442
224.36018	34523
224.38152	34488
224.40285	34320
224.42418	34328
224.4455	34374
224.46683	34375
224.48816	34169
224.50949	33930
224.53082	33895
224.55214	33774
224.57347	33862
224.5948	33858
224.61613	33905
224.63745	34058
224.65878	34170
224.68011	34133
224.70145	34186
224.72276	34235
224.74409	34442
224.76541	34780
224.78674	34967
224.80807	34976
224.82939	34914
224.85072	35080
224.87204	35203
224.89337	35210
224.9147	34821
224.93602	34801
224.95735	34789
224.97867	34744
225	34432
225.02132	34688
225.04265	35355
225.06396	35201
225.08528	35497
225.10661	35539
225.12793	35580
225.14926	35614
225.17058	35456
225.19189	35490
225.21323	35619
225.23454	35595
225.25586	35953
225.27719	35820
225.29851	35943
225.31982	35837
225.34116	35772
225.36247	35814
225.38379	35699
225.40511	35710
225.42644	35818
225.44775	35948
225.46907	35996
225.49039	35935
225.5117	36008
225.53304	36077
225.55435	36348
225.57567	36320
225.59698	36455
225.6183	36260
225.63962	36268
225.66093	36458
225.68225	36254
225.70357	36397
225.72488	36612
225.7462	36577
225.76752	36653
225.78883	36799
225.81015	36739
225.83147	36974
225.85278	36951
225.8741	36809
225.89542	37093
225.91673	37049
225.93805	36927
225.95937	36997
225.98068	37130
226.00198	37118
226.0233	37023
226.04462	37063
226.06593	36963
226.08725	37154
226.10855	37251
226.12987	37136
226.15118	37085
226.1725	37324
226.1938	37325
226.21512	37539
226.23643	37501
226.25775	37584
226.27905	37669
226.30037	37541
226.32167	37708
226.34299	37561
226.3643	37475
226.3856	37553
226.40692	37731
226.42824	37735
226.44954	37751
226.47086	37864
226.49216	37719
226.51347	37854
226.53477	37587
226.55609	37482
226.57739	37462
226.59871	37294
226.62001	37050
226.64131	36726
226.66263	36750
226.68393	36761
226.70525	36642
226.72655	36723
226.74785	37132
226.76917	36871
226.79047	36689
226.81177	36902
226.83308	36656
226.85439	36830
226.87569	36830
226.897	36958
226.9183	37435
226.93961	37137
226.96091	37301
226.98222	37318
227.00352	37536
227.02483	37812
227.04613	37778
227.06743	37760
227.08873	37799
227.11005	37747
227.13135	37437
227.15265	37381
227.17395	37427
227.19525	37449
227.21655	37701
227.23785	37768
227.25916	38135
227.28046	38165
227.30176	38335
227.32306	38088
227.34436	38194
227.36566	38172
227.38696	38253
227.40826	38667
227.42957	38785
227.45087	38929
227.47217	38782
227.49347	38716
227.51476	38494
227.53606	38450
227.55736	38445
227.57866	38782
227.59996	38836
227.62126	38831
227.64255	38988
227.66385	38884
227.68515	39091
227.70645	39142
227.72774	39220
227.74904	39321
227.77034	39439
227.79163	39382
227.81293	39121
227.83423	39093
227.85551	39176
227.87682	38976
227.89812	39570
227.9194	39497
227.9407	40149
227.96199	39901
227.98329	39794
228.00459	39974
228.02588	39596
228.04718	39857
228.06847	39925
228.08977	39884
228.11105	40230
228.13234	40232
228.15364	40467
228.17493	40221
228.19623	40481
228.21751	40817
228.23882	40432
228.2601	40728
228.28139	40742
228.30269	40871
228.32397	40941
228.34526	41004
228.36656	40805
228.38785	40937
228.40913	40731
228.43042	41057
228.45172	41301
228.47301	41534
228.49429	41501
228.51558	41424
228.53688	41483
228.55817	41394
228.57945	41764
228.60074	41731
228.62202	42127
228.64331	42486
228.6646	42318
228.6859	42535
228.70718	42502
228.72847	42688
228.74976	42839
228.77104	42904
228.79233	42968
228.81361	43337
228.8349	42905
228.85619	42976
228.87747	43150
228.89876	43063
228.92004	43326
228.94133	42964
228.9626	43265
228.98389	43192
229.00517	43273
229.02646	43438
229.04774	43845
229.06903	43941
229.09032	43665
229.11159	44361
229.13287	44321
229.15416	44472
229.17545	44609
229.19673	44822
229.218	44581
229.23929	44810
229.26057	44611
229.28185	44788
229.30313	44713
229.32442	44583
229.34569	44618
229.36697	44649
229.38826	44790
229.40953	44723
229.43082	44502
229.45209	44576
229.47337	44655
229.49466	44511
229.51593	44543
229.53722	44641
229.55849	44763
229.57977	44810
229.60104	44691
229.62233	44532
229.6436	44183
229.66489	44158
229.68616	44125
229.70743	43880
229.72871	43838
229.74998	43488
229.77126	43660
229.79254	43107
229.81381	43060
229.8351	43104
229.85637	42872
229.87764	42940
229.89891	42769
229.9202	43098
229.94147	42690
229.96274	43049
229.98401	42374
230.00529	42449
230.02657	42299
230.04784	42604
230.06911	42757
230.09038	42379
230.11165	42714
230.13293	42334
230.15421	42411
230.17548	42033
230.19675	41933
230.21802	41883
230.23929	41757
230.26056	41692
230.28183	41335
230.3031	41018
230.32437	41273
230.34564	40934
230.36691	40660
230.38818	40539
230.40945	40347
230.43073	40392
230.452	40645
230.47327	40397
230.49454	40419
230.51579	40258
230.53706	40076
230.55833	40395
230.57961	40445
230.60088	40294
230.62215	40319
230.6434	40457
230.66467	39900
230.68594	40146
230.70721	39856
230.72847	39747
230.74974	39767
230.77101	39378
230.79227	39374
230.81354	39484
230.83481	39486
230.85606	39762
230.87733	39618
230.89861	39826
230.91986	39699
230.94113	39637
230.96239	39139
230.98366	39290
231.00491	39162
231.02618	39300
231.04744	39222
231.06871	39487
231.08997	39476
231.11124	39560
231.13249	39144
231.15376	39375
231.17502	39248
231.19629	39247
231.21754	39416
231.2388	39373
231.26007	39499
231.28133	39575
231.30258	39351
231.32385	39607
231.34511	39688
231.36636	39871
231.38763	39650
231.40889	39730
231.43015	39604
231.4514	39663
231.47266	39645
231.49393	39839
231.51518	39504
231.53644	39683
231.55769	39900
231.57895	39936
231.6002	39957
231.62148	40322
231.64273	40259
231.66399	40183
231.68524	40342
231.7065	40150
231.72775	40313
231.74901	40146
231.77026	40224
231.79152	40297
231.81277	40064
231.83403	39914
231.85529	39833
231.87654	39754
231.8978	40044
231.91905	40197
231.94031	39936
231.96155	40064
231.9828	40001
232.00406	39853
232.02531	39970
232.04657	39697
232.06783	39875
232.08907	40124
232.11032	39940
232.13158	39822
232.15283	39522
232.17407	39689
232.19533	39616
232.21658	39788
232.23784	39690
232.25908	39521
232.28033	39879
232.30159	39889
232.32283	39856
232.34409	39521
232.36533	39526
232.38658	39179
232.40784	39076
232.42908	38596
232.45033	38632
232.47157	38479
232.49283	38620
232.51407	38865
232.53532	38739
232.55656	38664
232.57782	38641
232.59906	38585
232.6203	38419
232.64156	38514
232.6628	38860
232.68405	38845
232.70529	39079
232.72653	39354
232.74779	39042
232.76903	39292
232.79027	39028
232.81152	39743
232.83276	39399
232.854	39548
232.87524	39462
232.8965	39337
232.91774	39194
232.93898	39062
232.96022	38899
232.98146	39175
233.00272	39215
233.02396	39396
233.0452	39584
233.06644	39711
233.08768	39500
233.10892	39602
233.13016	39832
233.1514	39883
233.17264	40152
233.19388	40262
233.21512	40418
233.23636	40671
233.2576	40353
233.27884	40368
233.30008	40345
233.32132	40342
233.34256	40322
233.3638	40618
233.38504	40486
233.40628	40482
233.42752	40444
233.44876	40733
233.46999	40448
233.49123	40636
233.51247	40857
233.53371	40690
233.55495	40761
233.57617	40624
233.59741	40717
233.61865	40723
233.63989	40679
233.66112	41005
233.68236	41140
233.7036	41239
233.72482	41482
233.74606	41347
233.7673	41185
233.78853	40957
233.80977	40977
233.83099	41005
233.85223	40983
233.87347	41224
233.8947	41215
233.91594	41316
233.93716	41323
233.9584	41412
233.97963	41381
234.00087	41388
234.02209	41352
234.04332	41237
234.06456	41246
234.08578	41269
234.10703	41090
234.12825	41331
234.14948	41065
234.17072	40998
234.19194	40973
234.21317	41607
234.23441	41718
234.25563	41889
234.27686	41842
234.29808	42052
234.31932	41939
234.34055	41683
234.36177	42035
234.383	42102
234.40424	42343
234.42546	42715
234.44669	42509
234.46791	42538
234.48914	42896
234.51036	42743
234.53159	42769
234.55281	42615
234.57404	42906
234.59526	42781
234.61649	42846
234.63773	42744
234.65895	42740
234.68016	42843
234.70139	42385
234.72261	42353
234.74384	42481
234.76506	42295
234.78629	42094
234.80751	42324
234.82874	42541
234.84996	42362
234.87119	42874
234.89241	42657
234.91362	43162
234.93484	42889
234.95607	43084
234.97729	43032
234.9985	42900
235.01973	43043
235.04095	43028
235.06218	42879
235.08339	42893
235.10461	42842
235.12584	42685
235.14705	42810
235.16827	42689
235.1895	42642
235.21071	42779
235.23193	42741
235.25314	42740
235.27437	42347
235.29559	42445
235.3168	42449
235.33803	42930
235.35924	42683
235.38046	42736
235.40167	42644
235.4229	42688
235.44411	42625
235.46532	42400
235.48654	42658
235.50775	42813
235.52898	42783
235.55019	42884
235.5714	42777
235.59262	42716
235.61383	42659
235.63504	42717
235.65627	42523
235.67747	42967
235.69868	42826
235.71989	43026
235.74112	43003
235.76233	42857
235.78354	42952
235.80475	43039
235.82596	43248
235.84718	43226
235.86839	43653
235.8896	43220
235.91081	43326
235.93202	43519
235.95323	43587
235.97444	43377
235.99565	43556
236.01686	43449
236.03807	43199
236.05928	43264
236.08049	43265
236.1017	43128
236.12291	43093
236.14412	42827
236.16533	43046
236.18654	42601
236.20775	43151
236.22896	42831
236.25017	42975
236.27136	42842
236.29257	42945
236.31378	42790
236.33499	43072
236.3562	43018
236.3774	43073
236.39861	42909
236.41982	42863
236.44102	42983
236.46222	42719
236.48343	42641
236.50464	42828
236.52583	42658
236.54704	42283
236.56825	42377
236.58945	42158
236.61066	42259
236.63187	42456
236.65306	42039
236.67427	42044
236.69547	41687
236.71667	41704
236.73787	41288
236.75908	41371
236.78027	41343
236.80148	41486
236.82268	41289
236.84389	41205
236.86508	41329
236.88629	40789
236.90749	41043
236.92868	40633
236.94989	40666
236.97108	40723
236.99228	41023
237.01349	40877
237.03468	40981
237.05588	40730
237.07709	40392
237.09828	40966
237.11948	40599
237.14067	40380
237.16187	40448
237.18307	40247
237.20427	39887
237.22546	39923
237.24666	39639
237.26785	39745
237.28905	39854
237.31024	39712
237.33145	39642
237.35265	39880
237.37384	39626
237.39503	39733
237.41623	39653
237.43742	39523
237.45862	39407
237.47981	39506
237.50101	39166
237.5222	39381
237.5434	39457
237.56458	39031
237.58577	39126
237.60696	38861
237.62816	38747
237.64935	38531
237.67055	38574
237.69174	38560
237.71292	38422
237.73412	38592
237.75531	38236
237.7765	38360
237.7977	38288
237.81888	38197
237.84007	38101
237.86127	37890
237.88245	37891
237.90364	37352
237.92484	37194
237.94601	36893
237.96721	36988
237.9884	36756
238.00958	36789
238.03078	36959
238.05196	36790
238.07315	37043
238.09433	36711
238.11552	36505
238.1367	36289
238.1579	36107
238.17908	35760
238.20027	35776
238.22145	35350
238.24265	35123
238.26382	35047
238.285	35016
238.3062	35103
238.32738	34976
238.34857	34955
238.36975	34953
238.39093	34462
238.41211	34588
238.4333	34490
238.45448	34863
238.47566	34664
238.49686	34552
238.51804	34294
238.53922	34188
238.56039	34270
238.58157	34280
238.60275	34189
238.62395	33945
238.64513	33865
238.66631	33529
238.68748	33162
238.70866	33024
238.72984	32726
238.75102	32741
238.7722	32583
238.79338	32704
238.81456	32830
238.83574	32521
238.85692	32317
238.8781	32272
238.89928	32287
238.92046	32337
238.94164	32178
238.96281	32104
238.98399	32083
239.00516	31830
239.02634	31744
239.04752	31622
239.0687	31299
239.08987	31261
239.11105	31109
239.13222	30984
239.1534	30924
239.17458	30726
239.19576	30674
239.21692	30494
239.2381	30423
239.25928	30252
239.28044	30086
239.30162	30030
239.3228	30019
239.34396	29685
239.36514	29612
239.38631	29614
239.40749	29451
239.42865	29477
239.44983	29424
239.47099	29392
239.49217	29193
239.51334	29191
239.53452	29040
239.55568	28779
239.57686	28518
239.59802	28435
239.6192	28339
239.64037	28446
239.66153	28273
239.68271	28112
239.70387	27972
239.72504	27931
239.74622	27906
239.76738	27733
239.78854	27431
239.80972	27261
239.83089	27206
239.85205	27136
239.87321	27196
239.89438	26922
239.91556	26510
239.93672	26205
239.95789	26165
239.97905	26390
240.00021	26299
240.02138	26083
240.04254	26000
240.06372	25790
240.08488	25669
240.10605	25597
240.12721	25590
240.14838	25535
240.16954	25520
240.1907	25452
240.21187	25392
240.23303	25218
240.25418	25165
240.27534	25030
240.29651	24849
240.31767	24879
240.33884	24694
240.36	24451
240.38116	24360
240.40233	24169
240.42348	24044
240.44464	23946
240.46581	23810
240.48697	23589
240.50812	23583
240.52928	23367
240.55045	23365
240.57161	23314
240.59276	23196
240.61392	23063
240.63509	23083
240.65623	23059
240.6774	22888
240.69855	22729
240.71971	22614
240.74088	22528
240.76202	22448
240.78319	22317
240.80434	22207
240.8255	22099
240.84665	21945
240.86781	21638
240.88896	21413
240.91013	21304
240.93127	21251
240.95242	21064
240.97359	20883
240.99474	20848
241.01588	20614
241.03705	20519
241.0582	20291
241.07935	20175
241.10051	20087
241.12166	20074
241.14281	19996
241.16397	19868
241.18512	19750
241.20627	19551
241.22742	19422
241.24857	19350
241.26973	19275
241.29088	19244
241.31203	19203
241.33318	19039
241.35432	18847
241.37547	18652
241.39662	18589
241.41777	18551
241.43892	18499
241.46007	18483
241.48122	18507
241.50237	18440
241.52351	18310
241.54466	18036
241.56581	18011
241.58696	18037
241.60811	17994
241.62926	17919
241.65041	17796
241.67155	17906
241.6927	17908
241.71384	17746
241.73499	17681
241.75613	17590
241.77728	17506
241.79843	17326
241.81956	17240
241.84071	17144
241.86186	17161
241.88301	17110
241.90414	16957
241.92529	16781
241.94644	16642
241.96758	16588
241.98872	16532
242.00986	16538
242.03101	16416
242.05215	16315
242.07329	16312
242.09444	16233
242.11557	16094
242.13672	16062
242.15785	15981
242.179	15913
242.20013	15830
242.22128	15763
242.24242	15659
242.26357	15620
242.2847	15627
242.30583	15417
242.32698	15335
242.34811	15375
242.36925	15316
242.3904	15279
242.41153	15148
242.43266	14989
242.45381	14972
242.47495	14779
242.49608	14654
242.51721	14635
242.53835	14509
242.55949	14409
242.58063	14499
242.60176	14418
242.62289	14296
242.64403	14224
242.66516	14144
242.68629	14033
242.70744	13941
242.72858	14018
242.74971	14034
242.77084	14014
242.79198	13923
242.81311	13791
242.83424	13672
242.85538	13633
242.87651	13571
242.89763	13527
242.91876	13419
242.9399	13467
242.96103	13341
242.98216	13198
243.0033	13142
243.02443	12985
243.04556	12905
243.06668	12872
243.08781	12823
243.10895	12951
243.13008	12926
243.1512	12813
243.17233	12712
243.19347	12591
243.2146	12543
243.23572	12515
243.25685	12448
243.27797	12396
243.2991	12361
243.32024	12211
243.34135	12177
243.36249	12065
243.38361	12051
243.40474	11960
243.42587	11916
243.44699	11934
243.46812	11856
243.48924	11750
243.51036	11707
243.53149	11625
243.55261	11494
243.57375	11439
243.59486	11403
243.616	11312
243.63712	11241
243.65823	11168
243.67937	11115
243.70049	11009
243.7216	10945
243.74272	10952
243.76385	10918
243.78497	10884
243.80609	10828
243.82721	10737
243.84834	10684
243.86946	10551
243.89058	10384
243.9117	10340
243.93282	10249
243.95393	10191
243.97505	10120
243.99619	10057
244.0173	9997
244.03842	9968
244.05954	9920
244.08066	9943
244.10178	9861
244.12289	9814
244.14401	9754
244.16513	9751
244.18625	9784
244.20735	9833
244.22847	9801
244.24959	9678
244.27071	9637
244.29182	9621
244.31294	9554
244.33406	9504
244.35516	9468
244.37628	9418
244.3974	9304
244.41852	9256
244.43964	9155
244.46074	9070
244.48186	9198
244.50298	9091
244.52408	9154
244.5452	9099
244.56631	9047
244.58742	9009
244.60854	8896
244.62964	8909
244.65076	8908
244.67188	8884
244.69298	8838
244.7141	8833
244.7352	8809
244.75632	8763
244.77742	8719
244.79854	8665
244.81964	8610
244.84074	8526
244.86186	8535
244.88297	8435
244.90408	8367
244.92519	8317
244.94629	8313
244.96741	8308
244.98851	8247
245.00961	8189
245.03073	8082
245.05183	8099
245.07294	8020
245.09404	8017
245.11516	7958
245.13626	7977
245.15736	7931
245.17847	7911
245.19957	7936
245.22067	7913
245.24178	7839
245.26289	7780
245.284	7768
245.3051	7686
245.3262	7660
245.34731	7670
245.36841	7598
245.38951	7552
245.41061	7503
245.43172	7444
245.45282	7427
245.47392	7396
245.49503	7413
245.51611	7334
245.53722	7306
245.55832	7254
245.57942	7240
245.60052	7233
245.62163	7149
245.64272	7142
245.66382	7055
245.68492	6999
245.70602	7017
245.72711	6948
245.74821	6967
245.76932	6902
245.79042	6877
245.81151	6855
245.83261	6852
245.85371	6791
245.8748	6794
245.8959	6741
245.91699	6693
245.9381	6663
245.95918	6647
245.98029	6603
246.00137	6606
246.02248	6552
246.04356	6533
246.06467	6524
246.08575	6550
246.10686	6447
246.12794	6443
246.14905	6408
246.17014	6394
246.19122	6332
246.21233	6348
246.23341	6269
246.2545	6240
246.2756	6249
246.29669	6219
246.31778	6168
246.33887	6128
246.35997	6141
246.38106	6106
246.40215	6061
246.42323	6080
246.44432	6039
246.46542	6007
246.48651	5979
246.5076	5991
246.52869	5973
246.54977	5961
246.57086	5951
246.59195	5946
246.61304	5885
246.63412	5860
246.65521	5829
246.6763	5789
246.69739	5779
246.71848	5717
