# Columns are Wavelength, tx_c, tx_t, tx_l, tx_r, tx_b, oob_c
270.97316 -0.00106 -0.00106 -0.00132 -0.00053 -0.00237 0.00104
270.98294 -0.00305 0.00305 0.00138 -0.00332 0.00055 0.00107
270.99270 -0.00083 0.00193 0.00165 0.00193 0.00055 0.00107
271.00247 0.00192 0.00027 -0.00137 -0.00027 0.00082 0.00111
271.01221 0.00219 -0.00191 0.00137 -0.00055 -0.00164 0.00108
271.02198 -0.00055 0.00027 0.00082 0.00000 0.00027 0.00108
271.03174 0.00305 0.00000 -0.00139 -0.00083 0.00222 0.00107
271.04152 0.00332 0.00332 0.00055 0.00332 0.00166 0.00106
271.05128 0.00082 -0.00191 0.00355 0.00383 0.00219 0.00112
271.06105 0.00137 0.00000 0.00246 0.00109 -0.00109 0.00114
271.07083 0.00275 0.00357 0.00247 0.00192 0.00467 0.00112
271.08056 0.00249 -0.00028 0.00332 0.00000 0.00221 0.00107
271.09033 0.00304 -0.00028 0.00055 0.00138 0.00304 0.00109
271.10010 0.00055 -0.00276 0.00193 -0.00331 -0.00221 0.00107
271.10987 0.00470 0.00387 0.00304 0.00360 0.00249 0.00108
271.11963 -0.00195 0.00167 0.00028 0.00028 0.00083 0.00107
271.12941 -0.00194 0.00194 -0.00138 0.00194 0.00194 0.00108
271.13914 -0.00055 -0.00136 -0.00245 0.00055 0.00164 0.00106
271.14891 -0.00136 -0.00299 -0.00517 -0.00245 -0.00299 0.00106
271.15869 0.00082 -0.00055 0.00301 0.00164 0.00027 0.00107
271.16845 0.00277 0.00083 0.00360 0.00470 0.00304 0.00108
271.17822 0.00000 0.00306 -0.00278 0.00083 0.00083 0.00108
271.18796 0.00083 0.00056 -0.00278 0.00389 0.00250 0.00111
271.19773 0.00223 0.00167 0.00251 0.00418 0.00334 0.00110
271.20749 0.00084 0.00168 0.00056 0.00112 0.00112 0.00138
271.21727 0.00141 0.00084 -0.00141 0.00366 0.00169 0.00114
271.22700 0.00392 0.00252 0.00448 0.00252 0.00364 0.00112
271.23677 0.00252 0.00112 0.00196 0.00140 0.00252 0.00110
271.24655 0.00253 0.00197 0.00197 0.00141 0.00169 0.00110
271.25631 0.00310 0.00225 0.00761 0.00535 0.00704 0.00114
271.26605 0.00056 -0.00140 -0.00224 -0.00224 -0.00308 0.00114
271.27582 0.00702 0.00618 0.00618 0.00674 0.00561 0.00117
271.28559 0.00169 0.00393 0.00112 0.00140 0.00393 0.00111
271.29535 0.00168 0.00112 -0.00168 0.00056 0.00140 0.00112
271.30510 0.00450 0.00253 0.00281 0.00169 0.00366 0.00109
271.31486 0.00113 0.00170 0.00283 0.00085 0.00340 0.00114
271.32463 0.00028 0.00057 -0.00113 0.00142 0.00369 0.00115
271.33440 0.00311 0.00255 0.00425 0.00227 0.00170 0.00113
271.34414 -0.00028 0.00170 0.00057 -0.00255 0.00057 0.00116
271.35391 0.00113 -0.00085 -0.00170 -0.00311 -0.00113 0.00114
271.36368 -0.00170 0.00057 -0.00085 0.00142 0.00085 0.00112
271.37342 0.00028 -0.00056 0.00141 0.00226 0.00028 0.00115
271.38318 0.00195 0.00140 -0.00084 0.00419 0.00140 0.00118
271.39296 0.00278 0.00028 0.00223 0.00334 0.00167 0.00113
271.40269 0.00056 0.00112 0.00196 0.00476 0.00280 0.00112
271.41246 -0.00591 0.00253 0.00028 0.00028 -0.00028 0.00114
271.42223 0.00226 0.00310 0.00141 0.00000 0.00056 0.00111
271.43197 0.00253 0.00591 0.00028 0.00084 0.00366 0.00113
271.44173 0.00056 0.00393 0.00169 0.00337 0.00197 0.00113
271.45151 0.00392 0.00476 0.00280 0.00252 0.00448 0.00116
271.46125 0.00305 -0.00111 0.00499 -0.00083 0.00166 0.00114
271.47101 0.00000 0.00166 0.00028 0.00359 0.00000 0.00112
271.48079 -0.00028 0.00222 0.00332 0.00222 0.00332 0.00113
271.49052 0.00249 0.00333 0.00222 0.00305 0.00527 0.00113
271.50029 -0.00083 0.00278 0.00083 0.00056 -0.00278 0.00114
271.51006 0.00334 0.00529 0.00083 0.00111 0.00111 0.00115
271.51980 0.00250 0.00361 0.00250 0.00306 0.00361 0.00113
271.52956 0.00526 0.00249 0.00222 0.00360 0.00360 0.00114
271.53934 -0.00138 0.00110 0.00110 0.00331 0.00166 0.00112
271.54907 0.00083 0.00469 0.00055 0.00248 0.00000 0.00116
271.55884 0.00139 0.00305 0.00416 0.00305 0.00527 0.00113
271.56859 0.00083 0.00028 0.00056 -0.00167 -0.00111 0.00116
271.57835 0.00222 -0.00111 -0.00306 0.00333 -0.00250 0.00116
271.58812 -0.00167 -0.00139 -0.00223 0.00056 -0.00167 0.00115
271.59786 0.00391 0.00112 -0.00140 0.00000 0.00112 0.00112
271.60763 0.00084 -0.00252 -0.00140 -0.00224 0.00588 0.00116
271.61736 0.00419 0.00279 0.00224 0.00140 0.00335 0.00117
271.62714 0.00337 0.00196 0.00280 0.00084 -0.00028 0.00118
271.63687 0.00141 -0.00169 0.00225 0.00084 -0.00113 0.00115
271.64664 0.00000 -0.00084 0.00394 0.00000 -0.00084 0.00118
271.65641 0.00196 -0.00252 0.00000 -0.00056 0.00084 0.00117
271.66615 0.00112 0.00056 0.00028 0.00308 -0.00028 0.00115
271.67592 0.00587 0.00084 0.00559 0.00280 0.00168 0.00115
271.68566 0.00446 0.00363 0.00307 0.00307 0.00530 0.00117
271.69543 0.00167 -0.00361 0.00250 -0.00111 0.00222 0.00117
271.70517 0.00363 0.00641 0.00279 0.00418 0.00446 0.00117
271.71494 0.00140 0.00084 0.00056 0.00140 -0.00168 0.00118
271.72467 0.00056 0.00474 0.00028 -0.00028 0.00000 0.00120
271.73445 0.00252 0.00224 0.00140 0.00112 0.00112 0.00119
271.74418 0.00449 0.00197 0.00393 0.00562 0.00253 0.00120
271.75395 0.00479 0.00648 0.00394 0.00310 0.00704 0.00118
271.76369 0.00028 0.00226 -0.00141 0.00056 0.00226 0.00119
271.77346 0.00254 0.00000 0.00141 0.00113 0.00056 0.00119
271.78322 0.00198 0.00198 -0.00028 0.00113 0.00170 0.00120
271.79297 0.00114 0.00142 0.00085 0.00427 0.00455 0.00122
271.80273 0.00199 0.00255 0.00199 0.00284 0.00114 0.00118
271.81247 0.00453 0.00255 0.00311 0.00113 0.00340 0.00120
271.82222 -0.00170 0.00170 0.00397 0.00000 0.00312 0.00122
271.83198 0.00000 -0.00057 0.00199 0.00028 0.00256 0.00125
271.84172 -0.00057 -0.00114 -0.00596 0.00028 0.00028 0.00124
271.85149 0.00085 -0.00085 0.00397 -0.00028 0.00483 0.00125
271.86123 0.00570 0.00285 0.00428 0.00428 0.00257 0.00126
271.87099 0.00057 -0.00142 -0.00285 -0.00370 -0.00256 0.00125
271.88074 0.00000 -0.00085 0.00198 -0.00057 -0.00113 0.00125
271.89050 -0.00141 -0.00141 0.00113 -0.00141 0.00084 0.00125
271.90024 0.00084 0.00422 0.00112 -0.00056 0.00225 0.00124
271.91001 0.00056 0.00084 0.00140 0.00253 0.00197 0.00123
271.91975 0.00422 0.00422 -0.00112 0.00253 0.00000 0.00122
271.92948 -0.00056 0.00056 0.00112 0.00309 0.00141 0.00120
271.93926 0.00085 0.00056 -0.00028 0.00000 0.00197 0.00119
271.94899 0.00226 0.00198 -0.00085 0.00423 -0.00113 0.00121
271.95876 -0.00450 -0.00281 -0.00084 -0.00253 -0.00056 0.00123
271.96851 0.00253 0.00309 0.00253 0.00253 0.00590 0.00121
271.97827 0.00084 -0.00084 0.00281 0.00056 -0.00169 0.00123
271.98801 -0.00085 -0.00028 -0.00367 -0.00226 -0.00282 0.00123
271.99775 0.00311 0.00198 0.00198 0.00396 0.00340 0.00124
272.00752 0.00255 0.00312 0.00227 0.00283 0.00312 0.00124
272.01725 0.00199 0.00028 -0.00199 0.00085 0.00057 0.00124
272.02703 0.00227 0.00028 -0.00057 0.00425 0.00000 0.00124
272.03676 -0.00028 0.00028 0.00000 -0.00141 -0.00056 0.00125
272.04650 0.00279 0.00474 0.00697 0.00334 0.00362 0.00126
272.05627 0.00361 0.00333 -0.00028 0.00222 0.00167 0.00124
272.06601 0.00195 0.00528 0.00000 0.00473 0.00167 0.00126
272.07574 0.00056 0.00195 0.00140 0.00363 0.00419 0.00124
272.08552 0.00112 0.00112 0.00056 0.00028 0.00112 0.00131
272.09525 0.00363 0.00000 0.00084 -0.00140 -0.00112 0.00123
272.10499 -0.00083 0.00139 0.00223 0.00167 0.00167 0.00123
272.11477 0.00028 0.00222 0.00028 0.00111 -0.00360 0.00123
272.12450 0.00303 0.00083 0.00248 0.00578 0.00330 0.00121
272.13427 0.00055 -0.00164 -0.00219 -0.00411 0.00027 0.00123
272.14401 0.00357 0.00549 0.00137 0.00330 0.00494 0.00122
272.15375 0.00441 0.00441 -0.00055 0.00248 0.00276 0.00123
272.16348 0.00165 0.00027 0.00220 0.00440 0.00357 0.00124
272.17326 0.00165 -0.00083 -0.00138 0.00028 0.00138 0.00123
272.18299 -0.00083 0.00110 0.00000 -0.00028 -0.00028 0.00125
272.19273 0.00193 0.00138 0.00138 0.00275 0.00083 0.00124
272.20250 0.00330 0.00165 0.00110 -0.00055 0.00193 0.00115
272.21224 -0.00414 -0.00055 -0.00276 -0.00166 -0.00331 0.00107
272.22197 0.00056 0.00139 -0.00139 0.00083 0.00222 0.00125
272.23175 0.00194 0.00194 0.00222 0.00361 0.00471 0.00126
272.24148 -0.00028 0.00361 0.00527 0.00555 0.00194 0.00125
272.25122 0.00333 0.00277 0.00610 0.00610 0.00416 0.00125
272.26096 0.00448 0.00308 0.00308 0.00168 0.00308 0.00127
272.27073 -0.00169 0.00000 -0.00365 -0.00253 0.00225 0.00129
272.28046 0.00533 0.00337 0.00168 0.00168 0.00421 0.00142
272.29021 -0.00196 -0.00448 -0.00196 -0.00056 -0.00392 0.00137
272.29994 0.00392 0.00280 0.00420 0.00671 0.00615 0.00126
272.30972 -0.00028 -0.00280 0.00056 -0.00084 -0.00364 0.00128
272.31946 0.00196 0.00253 0.00421 0.00168 0.00140 0.00128
272.32919 -0.00140 0.00225 0.00169 0.00112 0.00140 0.00130
272.33894 0.00168 0.00559 0.00559 0.00224 0.00447 0.00128
272.34870 0.00388 0.00333 0.00083 0.00083 0.00277 0.00128
272.35844 -0.00249 -0.00305 -0.00166 0.00000 0.00028 0.00126
272.36818 0.00111 0.00055 0.00000 -0.00277 -0.00221 0.00128
272.37792 0.00415 0.00055 0.00221 0.00747 0.00083 0.00127
272.38768 0.00138 0.00221 -0.00028 0.00028 0.00028 0.00125
272.39743 0.00555 0.00250 0.00139 0.00416 0.00250 0.00128
272.40716 0.00417 0.00195 -0.00028 0.00083 0.00028 0.00131
272.41690 0.00363 0.00000 -0.00056 0.00307 0.00140 0.00135
272.42664 0.00195 0.00251 0.00084 0.00000 0.00167 0.00133
272.43641 -0.00389 0.00083 -0.00056 -0.00028 0.00056 0.00126
272.44614 0.00281 0.00084 0.00028 0.00000 0.00000 0.00130
272.45589 -0.00141 -0.00028 0.00084 0.00084 0.00338 0.00128
272.46562 0.00000 0.00308 -0.00168 0.00224 0.00112 0.00129
272.47536 0.00168 0.00419 0.00028 -0.00084 0.00307 0.00131
272.48510 0.00056 0.00028 0.00223 -0.00168 0.00028 0.00134
272.49487 0.00559 0.00252 0.00503 0.00363 0.00279 0.00131
272.50460 0.00223 0.00167 0.00112 -0.00028 0.00307 0.00131
272.51435 -0.00056 0.00168 0.00224 0.00140 0.00084 0.00130
272.52408 0.00619 0.00394 -0.00028 0.00197 0.00113 0.00132
272.53382 0.00113 -0.00028 0.00169 0.00338 0.00197 0.00130
272.54357 0.00281 0.00505 0.00337 0.00337 0.00449 0.00130
272.55330 0.00363 0.00531 0.00531 0.00503 0.00475 0.00135
272.56307 0.00139 -0.00223 -0.00195 0.00028 -0.00278 0.00130
272.57281 0.00250 0.00139 0.00111 0.00306 0.00195 0.00133
272.58255 0.00055 -0.00028 0.00277 0.00305 0.00166 0.00133
272.59228 0.00416 0.00083 0.00472 0.00055 0.00028 0.00133
272.60203 0.00752 0.00362 0.00279 0.00557 0.00195 0.00134
272.61176 0.00140 0.00307 0.00251 0.00279 0.00307 0.00135
272.62150 -0.00336 -0.00224 -0.00560 -0.00504 -0.00196 0.00136
272.63124 0.00056 0.00056 0.00280 0.00280 0.00196 0.00138
272.64098 -0.00167 -0.00307 0.00000 -0.00195 -0.00028 0.00137
272.65071 0.00306 -0.00167 0.00501 0.00222 0.00195 0.00135
272.66049 0.00139 0.00417 0.00056 0.00028 0.00611 0.00136
272.67022 0.00251 0.00140 -0.00112 0.00056 -0.00140 0.00135
272.67996 0.00168 -0.00028 0.00729 0.00168 0.00337 0.00136
272.68970 0.00084 0.00028 0.00224 0.00476 0.00392 0.00136
272.69944 -0.00055 -0.00083 0.00055 0.00083 0.00194 0.00136
272.70917 0.00331 0.00138 0.00441 0.00496 0.00524 0.00136
272.71892 0.00111 -0.00249 0.00028 0.00028 -0.00028 0.00139
272.72865 0.00332 0.00332 0.00360 0.00470 0.00221 0.00134
272.73839 0.00055 0.00221 -0.00083 0.00138 0.00360 0.00133
272.74813 0.00055 0.00055 0.00333 -0.00111 -0.00111 0.00135
272.75787 -0.00028 0.00305 -0.00111 0.00333 0.00333 0.00138
272.76760 0.00277 0.00083 0.00028 0.00249 0.00055 0.00141
272.77735 -0.00138 -0.00055 -0.00276 0.00000 0.00055 0.00150
272.78708 0.00164 0.00109 -0.00109 0.00273 0.00164 0.00137
272.79682 -0.00274 -0.00027 -0.00055 -0.00191 0.00055 0.00132
272.80656 0.00329 0.00274 0.00055 0.00165 0.00220 0.00131
272.81630 0.00055 0.00192 0.00000 0.00330 0.00137 0.00132
272.82603 0.00246 0.00546 0.00327 0.00191 0.00546 0.00137
272.83578 0.00272 0.00570 0.00598 0.00244 0.00625 0.00129
272.84551 0.00082 0.00000 0.00055 0.00300 0.00082 0.00135
272.85526 0.00000 0.00027 -0.00055 -0.00109 0.00164 0.00138
272.86499 -0.00272 -0.00136 -0.00054 -0.00654 -0.00518 0.00136
272.87473 0.00027 -0.00137 0.00301 0.00027 0.00437 0.00139
272.88447 0.00000 0.00027 0.00137 0.00082 0.00055 0.00137
272.89421 0.00082 -0.00027 0.00192 -0.00110 0.00301 0.00137
272.90395 -0.00027 -0.00082 0.00082 -0.00027 0.00027 0.00142
272.91369 0.00438 0.00000 0.00356 0.00384 -0.00110 0.00139
272.92343 0.00438 0.00603 0.00603 0.00247 0.00603 0.00140
272.93316 0.00330 0.00000 -0.00275 -0.00055 -0.00275 0.00141
272.94291 0.00413 0.00330 0.00138 0.00220 0.00193 0.00140
272.95264 0.00219 0.00383 0.00027 0.00328 0.00602 0.00142
272.96238 0.00357 0.00137 0.00110 0.00274 -0.00110 0.00142
272.97212 -0.00109 0.00354 0.00191 0.00245 0.00327 0.00142
272.98186 -0.00192 -0.00246 -0.00246 -0.00438 0.00137 0.00143
272.99156 -0.00055 0.00110 -0.00303 0.00275 0.00138 0.00142
273.00131 0.00055 0.00138 -0.00138 -0.00138 0.00193 0.00144
273.01104 0.00300 0.00055 0.00355 0.00518 0.00218 0.00142
273.02078 0.00136 0.00218 0.00109 0.00109 0.00273 0.00145
273.03052 0.00054 0.00299 -0.00054 0.00571 0.00299 0.00144
273.04026 0.00408 0.00136 -0.00082 0.00109 0.00109 0.00144
273.04999 -0.00136 0.00163 0.00381 -0.00027 0.00054 0.00142
273.05974 -0.00191 -0.00300 -0.00191 -0.00218 -0.00300 0.00146
273.06947 -0.00055 0.00082 -0.00164 -0.00110 0.00329 0.00147
273.07921 0.00412 0.00495 0.00247 0.00055 0.00192 0.00149
273.08892 -0.00055 0.00330 0.00137 0.00247 -0.00137 0.00149
273.09866 0.00192 0.00027 0.00055 -0.00082 0.00385 0.00150
273.10839 0.00111 0.00387 0.00000 0.00304 0.00387 0.00149
273.11814 0.00332 0.00388 -0.00111 0.00277 0.00443 0.00157
273.12787 0.00331 0.00276 0.00138 -0.00028 0.00468 0.00161
273.13761 -0.00027 0.00492 0.00137 0.00109 0.00137 0.00149
273.14732 0.00301 0.00164 0.00192 0.00137 0.00301 0.00146
273.15706 0.00055 -0.00164 -0.00055 -0.00027 -0.00082 0.00148
273.16679 -0.00055 0.00465 0.00274 -0.00328 0.00192 0.00150
273.17654 -0.00082 -0.00082 -0.00165 -0.00027 0.00110 0.00153
273.18627 0.00249 -0.00166 -0.00277 0.00055 -0.00166 0.00155
273.19601 0.00028 -0.00028 0.00334 0.00446 0.00000 0.00154
273.20572 0.00084 0.00335 0.00000 0.00307 0.00251 0.00154
273.21546 0.00028 0.00195 -0.00139 0.00112 -0.00028 0.00152
273.22519 0.00084 -0.00028 -0.00056 0.00167 0.00028 0.00148
273.23494 0.00305 0.00111 0.00222 0.00222 0.00361 0.00151
273.24467 0.00028 0.00165 -0.00083 0.00110 0.00083 0.00157
273.25438 0.00467 0.00385 0.00137 0.00385 0.00275 0.00156
273.26412 0.00165 0.00028 0.00110 0.00386 0.00055 0.00154
273.27386 0.00332 0.00000 0.00443 0.00111 0.00249 0.00153
273.28359 -0.00028 0.00000 0.00028 -0.00305 0.00194 0.00156
273.29334 0.00083 0.00055 0.00055 0.00360 0.00249 0.00152
273.30304 0.00194 0.00111 0.00277 0.00333 0.00443 0.00157
273.31278 0.00358 0.00028 0.00000 0.00083 0.00083 0.00152
273.32252 0.00410 0.00547 0.00355 0.00355 0.00109 0.00151
273.33226 0.00245 -0.00355 0.00000 0.00164 0.00191 0.00135
273.34196 0.00137 0.00355 -0.00301 0.00109 0.00301 0.00154
273.35171 0.00246 0.00219 0.00109 0.00082 -0.00027 0.00156
273.36144 0.00054 0.00163 -0.00272 0.00326 -0.00244 0.00155
273.37119 0.00269 0.00404 0.00081 0.00323 0.00458 0.00154
273.38089 0.00189 0.00189 -0.00054 -0.00162 0.00054 0.00155
273.39063 0.00541 0.00216 -0.00027 0.00243 0.00406 0.00164
273.40037 0.00081 0.00244 -0.00190 0.00271 0.00460 0.00148
273.41008 0.00027 0.00027 -0.00189 0.00271 -0.00271 0.00155
273.41981 0.00163 0.00353 0.00353 0.00136 0.00271 0.00158
273.42956 0.00000 -0.00027 -0.00027 0.00000 0.00273 0.00156
273.43929 0.00082 0.00219 0.00383 0.00301 0.00520 0.00156
273.44900 0.00273 0.00027 0.00109 0.00027 -0.00328 0.00159
273.45874 0.00355 0.00109 0.00082 0.00327 0.00327 0.00157
273.46848 0.00274 0.00082 0.00137 0.00192 0.00328 0.00157
273.47818 0.00272 0.00326 0.00326 0.00490 0.00490 0.00156
273.48793 0.00379 0.00352 0.00271 0.00190 0.00298 0.00155
273.49766 -0.00297 -0.00216 -0.00189 -0.00405 -0.00324 0.00156
273.50737 0.00487 0.00243 0.00189 0.00838 0.00189 0.00156
273.51711 0.00567 0.00486 0.00378 0.00351 0.00567 0.00154
273.52685 0.00000 0.00000 0.00269 0.00242 0.00188 0.00160
273.53655 0.00107 -0.00242 -0.00134 -0.00456 -0.00054 0.00155
273.54630 -0.00107 0.00134 -0.00402 -0.00134 -0.00054 0.00158
273.55603 0.00080 -0.00027 0.00267 0.00214 0.00000 0.00160
273.56574 0.00320 0.00027 0.00240 0.00133 0.00267 0.00159
273.57548 0.00294 0.00053 -0.00160 0.00107 -0.00107 0.00159
273.58518 0.00673 0.00323 0.00161 0.00269 0.00565 0.00163
273.59492 0.00378 0.00351 0.00566 -0.00108 0.00728 0.00159
273.60467 0.00324 -0.00054 0.00027 0.00486 0.00135 0.00164
273.61437 0.00486 0.00000 0.00270 0.00081 -0.00108 0.00165
273.62410 0.00431 0.00539 0.00593 0.00458 0.00324 0.00161
273.63382 0.00296 0.00161 0.00107 0.00134 0.00161 0.00162
273.64355 0.00027 -0.00027 -0.00269 0.00269 -0.00189 0.00166
273.65329 0.00647 0.00323 0.00512 0.00593 0.00512 0.00165
273.66300 0.00162 0.00189 0.00000 -0.00054 0.00027 0.00165
273.67274 -0.00054 -0.00403 -0.00403 -0.00564 -0.00457 0.00166
273.68244 0.00699 0.00457 0.00457 0.00269 0.00403 0.00165
273.69219 0.00510 0.00161 0.00483 0.00268 0.00241 0.00167
273.70192 -0.00054 -0.00027 0.00000 -0.00054 -0.00134 0.00167
273.71163 0.00482 0.00241 -0.00027 0.00134 0.00348 0.00165
273.72137 -0.00053 -0.00267 0.00160 -0.00027 0.00107 0.00167
273.73108 0.00295 0.00483 0.00617 0.00349 0.00241 0.00167
273.74081 -0.00027 -0.00297 -0.00108 -0.00432 0.00000 0.00169
273.75053 0.00675 0.00567 0.00378 0.00621 0.00459 0.00170
273.76026 0.00215 0.00027 0.00215 -0.00188 0.00135 0.00168
273.76997 0.00215 0.00081 0.00269 0.00215 0.00431 0.00168
273.77971 0.00027 0.00242 0.00215 0.00377 0.00215 0.00170
273.78942 0.00294 -0.00053 0.00160 0.00214 0.00214 0.00170
273.79915 0.00613 0.00586 0.00879 0.00506 0.00613 0.00168
273.80890 0.00534 0.00294 0.00294 0.00187 0.00294 0.00167
273.81860 0.00162 0.00189 0.00243 0.00243 0.00000 0.00171
273.82835 0.00027 -0.00027 0.00054 0.00435 0.00136 0.00175
273.83805 0.00218 0.00518 0.00300 0.00109 0.00490 0.00173
273.84779 0.00000 -0.00272 0.00027 0.00000 -0.00027 0.00174
273.85750 0.00190 0.00136 0.00054 -0.00027 0.00272 0.00175
273.86724 -0.00109 -0.00271 0.00190 -0.00054 -0.00434 0.00176
273.87694 0.00108 -0.00135 0.00108 -0.00027 -0.00027 0.00174
273.88666 -0.00054 0.00135 -0.00379 -0.00190 -0.00190 0.00173
273.89639 -0.00054 -0.00054 -0.00244 -0.00081 -0.00027 0.00174
273.90610 0.00461 0.00461 0.00380 0.00407 0.00434 0.00179
273.91584 0.00460 0.00568 0.00271 0.00054 0.00541 0.00180
273.92555 0.00271 0.00650 0.00135 0.00081 0.00135 0.00180
273.93528 0.00244 0.00109 0.00109 0.00407 0.00326 0.00176
273.94499 0.00353 -0.00108 -0.00081 -0.00163 -0.00163 0.00159
273.95473 0.00027 -0.00190 -0.00054 0.00326 -0.00380 0.00180
273.96443 0.00569 0.00352 0.00515 0.00704 0.00406 0.00181
273.97418 0.00109 0.00054 0.00407 0.00516 0.00000 0.00179
273.98388 0.00082 0.00436 0.00055 0.00136 -0.00027 0.00185
273.99359 0.00247 0.00274 0.00000 0.00219 -0.00055 0.00182
274.00333 0.00110 0.00027 0.00385 0.00192 0.00330 0.00186
274.01304 0.00247 -0.00357 -0.00027 -0.00137 -0.00082 0.00186
274.02277 -0.00164 0.00027 -0.00437 0.00027 -0.00328 0.00183
274.03249 -0.00109 0.00489 -0.00082 0.00218 0.00218 0.00185
274.04219 0.00109 0.00326 0.00136 -0.00109 -0.00136 0.00184
274.05193 0.00245 0.00082 0.00109 0.00408 0.00000 0.00185
274.06164 0.00273 0.00191 0.00055 0.00409 0.00409 0.00185
274.07138 0.00246 -0.00082 0.00055 0.00246 0.00383 0.00189
274.08108 0.00000 0.00055 -0.00027 0.00027 -0.00055 0.00189
274.09080 0.00353 0.00434 0.00081 0.00516 0.00217 0.00186
274.10053 0.00539 0.00539 0.00162 0.00565 0.00188 0.00187
274.11024 0.00134 -0.00188 -0.00054 -0.00080 0.00027 0.00187
274.11995 0.00508 -0.00054 0.00455 0.00535 0.00161 0.00203
274.12969 0.00510 0.00698 0.00537 0.00618 0.00430 0.00186
274.13939 0.00027 0.00081 0.00215 -0.00081 -0.00188 0.00187
274.14914 -0.00081 0.00134 0.00296 -0.00188 0.00188 0.00190
274.15884 0.00000 -0.00188 0.00108 -0.00054 0.00108 0.00188
274.16855 0.00054 0.00027 0.00269 0.00430 0.00349 0.00193
274.17829 0.00187 0.00241 0.00054 0.00402 0.00295 0.00188
274.18799 0.00000 0.00027 0.00027 0.00268 -0.00321 0.00189
274.19770 0.00242 0.00269 0.00403 0.00430 0.00430 0.00193
274.20744 0.00296 0.00377 -0.00162 0.00566 0.00189 0.00193
274.21715 0.00594 0.00459 0.00216 0.00432 0.00486 0.00191
274.22685 -0.00217 0.00163 -0.00108 0.00000 -0.00163 0.00188
274.23657 0.00380 0.00244 0.00081 0.00136 0.00190 0.00195
274.24630 0.00407 0.00299 0.00054 0.00190 0.00380 0.00203
274.25602 0.00136 0.00299 0.00353 0.00163 0.00190 0.00198
274.26572 0.00271 0.00190 0.00244 0.00271 0.00678 0.00199
274.27546 -0.00327 -0.00218 -0.00273 -0.00082 -0.00327 0.00198
274.28517 -0.00164 0.00109 0.00191 -0.00191 0.00027 0.00201
274.29488 -0.00082 -0.00055 0.00109 -0.00055 0.00273 0.00200
274.30458 -0.00190 0.00244 0.00380 0.00352 0.00298 0.00201
274.31433 0.00461 0.00217 0.00027 0.00000 0.00326 0.00201
274.32403 0.00217 0.00271 0.00108 0.00027 0.00135 0.00202
274.33374 0.00565 0.00404 0.00404 0.00754 0.00242 0.00205
274.34345 0.00862 0.00377 0.00242 0.00404 0.00512 0.00207
274.35319 0.00730 0.00460 0.00379 0.00406 0.00189 0.00203
274.36289 0.00514 0.00270 0.00189 0.00406 0.00081 0.00205
274.37260 0.00568 0.00297 0.00189 0.00081 -0.00081 0.00203
274.38231 0.00271 0.00081 0.00352 0.00325 0.00217 0.00205
274.39204 0.00461 0.00433 0.00488 0.00867 0.00433 0.00206
274.40176 0.00190 -0.00272 -0.00054 -0.00082 0.00054 0.00205
274.41146 0.00436 0.00218 0.00218 0.00354 0.00708 0.00208
274.42117 0.00300 0.00355 0.00055 0.00109 -0.00082 0.00210
274.43088 0.00192 0.00082 0.00219 0.00247 0.00027 0.00212
274.44062 0.00304 0.00138 -0.00138 -0.00110 -0.00331 0.00212
274.45032 0.00055 0.00000 0.00000 -0.00083 0.00083 0.00214
274.46004 -0.00028 0.00358 0.00138 0.00275 0.00110 0.00214
274.46974 0.00193 0.00414 0.00083 0.00497 0.00138 0.00215
274.47945 0.00305 0.00166 0.00055 -0.00111 0.00305 0.00216
274.48919 -0.00195 -0.00028 0.00000 0.00251 -0.00084 0.00218
274.49890 0.00529 0.00501 0.00473 0.00752 0.00445 0.00219
274.50860 0.00531 0.00810 0.00447 0.00363 0.00475 0.00218
274.51832 0.00140 -0.00224 -0.00392 -0.00420 0.00168 0.00221
274.52802 0.00196 0.00196 0.00000 0.00056 0.00028 0.00224
274.53772 -0.00111 0.00473 -0.00223 0.00223 -0.00084 0.00219
274.54747 0.00665 0.00610 0.00055 0.00637 0.00637 0.00220
274.55717 0.00443 -0.00166 0.00111 0.00249 0.00415 0.00221
274.56688 0.00526 0.00636 0.00720 0.00664 0.00775 0.00221
274.57659 0.00139 0.00083 0.00472 0.00222 0.00167 0.00224
274.58630 0.00084 0.00028 0.00251 0.00168 -0.00140 0.00226
274.59600 0.00140 0.00000 0.00225 0.00197 0.00168 0.00225
274.60572 0.00252 0.00337 0.00252 0.00168 0.00477 0.00225
274.61542 0.00420 0.00476 0.00196 0.00140 0.00308 0.00228
274.62516 0.00337 0.00589 0.00225 0.00505 0.00449 0.00227
274.63487 0.00534 0.00702 0.00421 0.00787 0.00702 0.00227
274.64458 0.00141 0.00056 0.00000 -0.00141 0.00141 0.00233
274.65429 0.00141 -0.00226 -0.00085 -0.00169 0.00113 0.00229
274.66399 0.00282 0.00056 -0.00197 0.00169 0.00000 0.00228
274.67370 0.00508 0.00537 0.00339 0.00367 0.00678 0.00228
274.68341 0.00562 0.00141 0.00281 0.00337 0.00506 0.00233
274.69312 0.00084 0.00084 -0.00084 -0.00168 -0.00307 0.00238
274.70282 0.00056 0.00305 0.00000 0.00222 -0.00167 0.00235
274.71254 0.00166 -0.00083 0.00194 0.00111 0.00055 0.00231
274.72224 0.00251 0.00418 0.00418 0.00306 0.00223 0.00235
274.73195 0.00140 0.00196 0.00028 0.00140 -0.00084 0.00230
274.74169 0.00392 0.00224 0.00476 0.00336 0.00252 0.00235
274.75140 0.00643 0.00363 0.00391 0.00726 0.00503 0.00236
274.76110 0.00667 0.00278 0.00250 0.00417 0.00306 0.00234
274.77082 0.00083 0.00138 0.00000 0.00275 0.00386 0.00236
274.78052 0.00247 0.00357 0.00384 0.00330 0.00275 0.00245
274.79023 0.00331 0.00690 0.00303 0.00414 0.00083 0.00237
274.79994 0.00303 0.00248 0.00193 0.00000 0.00496 0.00237
274.80964 0.00575 0.00301 0.00164 0.00603 0.00137 0.00236
274.81935 0.00465 0.00137 0.00329 0.00082 0.00274 0.00236
274.82906 0.00220 0.00165 -0.00082 -0.00082 0.00027 0.00238
274.83877 0.00193 0.00358 0.00468 0.00000 0.00551 0.00240
274.84847 0.00467 0.00467 0.00357 0.00302 0.00522 0.00240
274.85819 0.00220 0.00110 -0.00193 0.00138 0.00110 0.00242
274.86789 0.00442 0.00166 -0.00028 0.00276 0.00083 0.00243
274.87760 0.00193 0.00387 0.00055 0.00304 0.00359 0.00243
274.88731 0.00305 0.00610 0.00693 0.00388 0.00610 0.00245
274.89702 0.00638 0.00416 0.00472 0.00472 0.00583 0.00247
274.90672 0.00195 0.00056 0.00000 0.00334 0.00111 0.00251
274.91643 0.00279 0.00474 0.00279 -0.00084 0.00419 0.00252
274.92614 0.00307 0.00196 0.00307 0.00112 -0.00028 0.00251
274.93581 0.00418 0.00307 -0.00028 0.00084 0.00585 0.00253
274.94553 0.00083 0.00166 0.00083 0.00360 0.00139 0.00249
274.95523 0.00360 0.00055 0.00360 0.00222 0.00333 0.00252
274.96494 0.00167 0.00056 0.00000 0.00389 0.00389 0.00251
274.97465 0.00474 0.00306 0.00111 0.00390 0.00418 0.00253
274.98436 0.00637 0.00360 0.00443 0.00720 0.00415 0.00253
274.99406 0.00441 0.00138 0.00358 0.00303 0.00276 0.00252
275.00378 0.00028 0.00440 0.00000 0.00220 0.00413 0.00253
275.01348 0.00165 0.00385 -0.00028 -0.00110 0.00385 0.00224
275.02318 0.00852 0.00659 0.00467 0.00687 0.00769 0.00233
275.03290 0.00082 0.00192 -0.00082 0.00220 -0.00165 0.00247
275.04260 0.00275 0.00413 -0.00055 0.00165 0.00083 0.00259
275.05232 0.00359 0.00332 0.00249 0.00221 0.00553 0.00260
275.06199 0.00497 0.00110 0.00276 0.00055 0.00331 0.00265
275.07170 0.00469 0.00414 0.00689 0.00524 0.00496 0.00262
275.08141 -0.00055 0.00000 -0.00193 -0.00083 -0.00304 0.00264
275.09112 0.00694 0.00333 0.00528 0.00555 0.00417 0.00264
275.10082 0.00473 0.00167 0.00334 0.00417 0.00500 0.00266
275.11054 0.00166 0.00194 0.00360 0.00055 0.00388 0.00267
275.12024 0.00277 0.00360 0.00305 0.00443 0.00388 0.00266
275.12994 0.00580 0.00028 0.00221 0.00000 0.00055 0.00268
275.13963 0.00551 0.00248 0.00193 0.00275 0.00165 0.00265
275.14933 0.00384 0.00082 0.00219 0.00247 0.00055 0.00266
275.15904 0.00384 0.00247 0.00603 0.00466 0.00137 0.00263
275.16875 0.00606 0.00193 0.00220 0.00661 0.00440 0.00263
275.17846 0.00414 0.00469 0.00414 0.00386 0.00441 0.00273
275.18816 0.00413 0.00275 0.00358 0.00303 0.00495 0.00269
275.19785 0.00165 0.00192 -0.00110 0.00165 0.00411 0.00249
275.20755 0.00274 0.00192 0.00109 0.00383 0.00328 0.00265
275.21726 0.00328 0.00301 0.00410 0.00519 0.00519 0.00315
275.22697 0.00409 0.00109 0.00027 0.00218 0.00136 0.00276
275.23667 0.00681 0.00163 0.00463 0.00409 0.00272 0.00274
275.24635 0.00110 -0.00137 -0.00192 0.00055 0.00110 0.00277
275.25606 0.00743 0.00578 0.00330 0.00770 0.00358 0.00277
275.26577 0.00247 0.00165 -0.00055 0.00110 0.00082 0.00279
275.27547 -0.00055 0.00110 0.00439 0.00302 0.00384 0.00285
275.28519 -0.00219 0.00082 0.00027 -0.00164 -0.00027 0.00285
275.29486 0.00546 0.00492 0.00383 0.00437 0.00437 0.00280
275.30457 -0.00190 0.00000 0.00109 -0.00082 -0.00027 0.00281
275.31428 0.00299 0.00626 0.00408 0.00272 0.00435 0.00281
275.32398 -0.00027 0.00302 0.00357 -0.00027 -0.00137 0.00283
275.33366 0.00468 0.00138 0.00138 0.00028 0.00248 0.00296
275.34337 0.00382 0.00846 0.00409 0.00328 0.00573 0.00287
275.35308 0.00054 0.00325 -0.00136 -0.00136 0.00081 0.00285
275.36278 0.00595 0.00298 0.00217 0.00406 0.00081 0.00285
275.37247 0.00081 0.00135 0.00081 0.00189 0.00162 0.00286
275.38217 0.00379 0.00189 -0.00054 0.00189 0.00135 0.00285
275.39188 0.00271 0.00650 0.00487 0.00541 0.00704 0.00289
275.40156 0.00705 0.00515 0.00624 0.00136 0.00407 0.00289
275.41126 0.00000 0.00435 0.00435 0.00462 0.00299 0.00297
275.42098 0.00460 0.00515 0.00054 0.00352 0.00352 0.00291
275.43068 0.00404 0.00242 0.00781 0.00862 0.00539 0.00291
275.44036 0.00295 0.00161 0.00456 0.00215 0.00510 0.00296
275.45007 0.00323 0.00135 0.00485 0.00431 0.00377 0.00298
275.45978 -0.00107 0.00268 0.00027 0.00188 0.00000 0.00286
275.46945 0.00240 0.00454 0.00694 0.00293 0.00560 0.00292
275.47917 0.00133 0.00133 0.00027 0.00213 0.00400 0.00290
275.48887 0.00320 0.00320 0.00374 0.00427 0.00294 0.00291
275.49854 0.00427 0.00694 0.00240 0.00588 0.00534 0.00297
275.50826 0.00428 0.00481 0.00374 0.00267 0.00588 0.00294
275.51796 0.00563 0.00241 0.00349 0.00375 0.00456 0.00297
275.52764 0.00350 0.00296 0.00188 0.00108 0.00296 0.00301
275.53735 0.00134 -0.00242 -0.00430 -0.00215 -0.00188 0.00299
275.54706 0.00964 0.00857 0.00776 0.00803 0.00616 0.00302
275.55673 0.00482 0.00080 0.00080 -0.00107 0.00295 0.00302
275.56645 0.00619 0.00081 0.00242 0.00458 0.00242 0.00306
275.57612 0.00350 0.00216 0.00485 0.00512 0.00701 0.00307
275.58582 0.00405 0.00405 0.00216 0.00297 0.00054 0.00313
275.59554 0.00216 0.00135 0.00539 0.00243 0.00566 0.00308
275.60521 0.00135 0.00189 -0.00081 0.00404 0.00269 0.00308
275.61492 0.00990 0.00723 0.00723 0.01097 0.00562 0.00310
275.62463 0.00670 0.00509 0.00509 0.00536 0.00482 0.00309
275.63431 0.00565 0.00431 0.00296 0.00323 0.00000 0.00313
275.64401 0.00405 0.00270 0.00594 0.00378 0.00216 0.00313
275.65369 0.00268 0.00188 0.00430 0.00215 0.00134 0.00312
275.66340 0.00751 0.00027 0.00215 0.00564 0.00376 0.00313
275.67307 0.01019 0.00536 0.00644 0.00617 0.00563 0.00315
275.68279 -0.00134 0.00134 -0.00107 0.00187 0.00374 0.00316
275.69249 0.00748 0.00347 0.00240 0.00695 0.00668 0.00314
275.70217 0.00215 0.00241 -0.00027 0.00215 0.00322 0.00317
275.71188 0.00081 0.00162 0.00000 0.00243 0.00189 0.00320
275.72155 0.00487 0.00000 0.00568 0.00379 0.00406 0.00325
275.73126 -0.00081 0.00297 0.00216 0.00270 0.00135 0.00324
275.74094 0.00540 0.00567 0.00432 0.00595 0.00811 0.00324
275.75065 0.00245 0.00163 0.00082 0.00217 0.00571 0.00324
275.76032 0.00408 0.00272 0.00218 0.00463 0.00843 0.00327
275.77004 0.01002 0.00839 0.00920 0.00650 0.00650 0.00327
275.77974 0.00322 0.00349 0.00215 0.00134 0.00269 0.00327
275.78943 0.00457 0.00349 0.00645 0.00994 0.00699 0.00328
275.79913 0.00322 0.00376 0.00349 0.00269 0.00188 0.00331
275.80880 0.00538 0.00323 0.00377 0.00269 0.00484 0.00334
275.81852 0.00270 0.00377 0.00162 0.00162 0.00593 0.00332
275.82819 0.00433 0.00054 0.00217 0.00244 0.00515 0.00329
275.83790 0.00274 0.00438 0.00438 0.00274 0.00410 0.00339
275.84758 0.00494 0.00110 0.00302 0.00165 0.00384 0.00345
275.85729 0.00659 0.00494 0.00357 0.00439 0.00412 0.00339
275.86696 0.00604 0.00412 0.00494 0.00329 0.00329 0.00341
275.87664 0.00219 0.00219 0.00274 0.00301 0.00356 0.00347
275.88635 0.00136 0.00845 0.00518 0.00654 0.00436 0.00341
275.89602 0.00625 0.00407 0.00489 0.00978 0.00869 0.00345
275.90574 0.00218 0.00245 0.00490 0.00354 0.00245 0.00345
275.91541 0.00849 0.00520 0.00329 0.00548 0.00849 0.00349
275.92512 0.00768 0.00411 0.00466 0.00603 0.00823 0.00349
275.93480 0.00523 0.00523 0.00551 0.00468 0.00441 0.00352
275.94450 0.00879 0.00659 0.00549 0.00659 0.00330 0.00352
275.95418 0.00736 0.00436 0.00245 0.00627 0.00218 0.00349
275.96389 0.00298 0.00135 0.00217 0.00081 -0.00054 0.00349
275.97357 0.00242 -0.00027 0.00350 0.00323 0.00215 0.00348
275.98324 0.00458 0.00539 0.00566 0.00620 0.00404 0.00350
275.99296 0.00351 0.00621 0.00648 0.00675 0.00513 0.00352
276.00263 0.00161 0.00161 0.00188 0.00349 0.00161 0.00353
276.01233 0.00428 0.00187 0.00643 0.00777 0.00562 0.00352
276.02202 -0.00188 -0.00134 -0.00214 0.00054 -0.00322 0.00355
276.03169 0.00509 0.00616 0.00509 0.00322 0.00670 0.00355
276.04140 0.00214 0.00000 -0.00214 0.00134 -0.00027 0.00356
276.05108 0.00483 0.00564 0.00456 0.00403 0.00215 0.00354
276.06079 0.00377 0.00701 0.00728 0.00189 0.00539 0.00360
276.07046 0.00460 0.00351 0.00378 0.00135 0.00460 0.00362
276.08014 0.00431 0.00458 0.00593 0.00539 0.00620 0.00360
276.08985 0.00887 0.00457 0.00564 0.00618 0.00564 0.00362
276.09952 0.00592 0.00431 0.00538 0.00323 0.00431 0.00362
276.10921 0.00350 0.00404 0.00108 0.00350 0.00081 0.00369
276.11891 0.00881 0.00267 0.00641 0.00561 0.00454 0.00362
276.12860 0.00373 0.00400 0.00346 0.00293 0.00266 0.00363
276.13827 0.00293 0.00266 0.00240 0.00133 0.00106 0.00365
276.14797 0.00455 0.00669 0.00375 0.00615 0.00589 0.00369
276.15766 0.00562 0.00856 0.00830 0.00776 0.00535 0.00369
276.16733 0.00160 0.00534 0.00347 0.00187 0.00240 0.00368
276.17704 0.00346 0.00505 0.00452 0.00426 0.00213 0.00371
276.18672 0.00425 0.00557 0.00557 0.00265 0.00345 0.00369
276.19640 0.00291 0.00476 0.00264 0.00264 0.00317 0.00372
276.20610 0.00210 -0.00132 0.00210 0.00132 -0.00026 0.00373
276.21578 0.00317 0.00686 0.00317 0.00396 0.00660 0.00375
276.22546 0.00372 0.00611 0.00212 0.00266 0.00425 0.00376
276.23516 0.00693 0.00293 0.00479 0.00559 0.00719 0.00379
276.24485 0.00561 0.00668 0.00614 0.00481 0.00588 0.00380
276.25452 0.00588 0.00321 0.00615 0.00535 0.00642 0.00381
276.26419 0.00639 0.00213 0.00479 0.00692 0.00746 0.00379
276.27391 0.00741 0.00529 0.00820 0.00555 0.00555 0.00380
276.28358 0.00636 0.00742 0.00583 0.00715 0.00583 0.00382
276.29326 0.00266 0.00292 0.00851 0.00691 0.00585 0.00385
276.30294 0.00532 0.00027 0.00559 0.00453 0.00479 0.00386
276.31265 0.00319 0.00505 0.00585 0.00239 0.00266 0.00387
276.32232 0.01007 0.00477 0.00689 0.00451 0.00424 0.00387
276.33200 0.00212 0.00212 0.00478 0.00000 0.00478 0.00389
276.34168 0.00479 0.00240 0.00160 0.00240 0.00559 0.00393
276.35138 0.00107 0.00107 0.00455 0.00214 0.00080 0.00398
276.36107 0.00267 0.00267 0.00160 0.00428 0.00481 0.00397
276.37074 0.00242 0.00403 0.00429 0.00429 0.00161 0.00401
276.38042 0.00215 0.00295 0.00590 0.00188 0.00429 0.00400
276.39010 0.00941 0.00430 0.00511 0.00726 0.00672 0.00407
276.39980 0.00643 0.00375 0.00509 0.00482 0.00831 0.00402
276.40948 0.00856 0.00375 0.00401 0.00589 0.00482 0.00403
276.41916 0.00481 0.00561 0.00481 0.00053 0.00027 0.00402
276.42884 0.00479 0.00718 0.00346 0.00692 0.00612 0.00400
276.43851 0.00530 0.00345 0.00530 0.00345 0.00212 0.00403
276.44822 0.00478 0.00266 0.00399 0.00478 0.00585 0.00407
276.45790 0.00721 0.00614 0.00347 0.00374 0.00561 0.00408
276.46758 0.00859 0.00886 0.00510 0.00671 0.01234 0.00417
276.47726 0.00377 0.00324 0.00566 0.00458 0.00324 0.00415
276.48693 0.00727 0.00619 0.00242 0.00377 0.00404 0.00418
276.49662 0.00512 0.00404 0.00324 0.00458 0.00485 0.00420
276.50632 0.00431 0.00700 0.00377 0.00538 0.00485 0.00418
276.51599 0.00377 0.00350 0.00592 0.00350 0.00161 0.00418
276.52568 0.00541 0.00460 0.00704 0.00298 0.00677 0.00424
276.53535 0.00622 0.00162 -0.00027 0.00135 0.00297 0.00424
276.54503 0.00673 0.00512 0.00620 0.00593 0.00620 0.00427
276.55471 0.00107 0.00187 0.00348 0.00536 0.00482 0.00425
276.56438 0.00615 0.00535 0.00348 0.00508 0.00696 0.00439
276.57406 0.00670 0.00402 0.00322 0.00268 0.00375 0.00427
276.58377 0.00781 0.00700 0.00673 0.00888 0.00969 0.00433
276.59345 0.00541 0.00514 0.00433 0.00433 0.00270 0.00434
276.60312 0.00730 0.00622 0.00757 0.00189 0.00352 0.00438
276.61281 0.00243 0.00594 0.00432 0.00351 0.00243 0.00437
276.62248 0.00242 0.00081 0.00377 0.00215 0.00565 0.00439
276.63215 0.00648 0.00351 0.00297 0.00513 0.00162 0.00441
276.64184 0.00433 0.00406 0.00730 0.00703 0.00595 0.00443
276.65151 0.00541 -0.00189 0.00244 0.00189 0.00568 0.00445
276.66119 0.00565 0.00404 0.00323 0.00458 0.00538 0.00445
276.67087 0.00536 0.00643 0.00509 0.00483 0.00670 0.00447
276.68054 0.00534 0.01042 0.00561 0.00748 0.00775 0.00445
276.69022 0.00642 0.00696 0.00455 0.00803 0.00455 0.00446
276.69993 0.00803 0.00402 0.00482 0.00402 0.00402 0.00447
276.70961 0.00859 0.00591 0.00537 0.00698 0.00671 0.00448
276.71928 0.00937 0.00268 0.00696 0.00937 0.00643 0.00453
276.72896 0.00853 0.00640 0.00773 0.00533 0.00907 0.00450
276.73864 0.00400 0.00453 0.00213 0.00400 0.00187 0.00451
276.74831 0.00479 0.00373 0.00426 0.00293 0.00506 0.00454
276.75800 0.00559 0.00533 0.00639 0.00586 0.00799 0.00454
276.76767 0.00745 0.00506 0.00719 0.00426 0.00106 0.00443
276.77735 0.00585 0.00612 0.00692 0.00452 0.00266 0.00454
276.78703 0.00479 0.00505 0.00558 0.00452 0.00904 0.00458
276.79670 0.00825 0.00532 0.00479 0.00452 0.00692 0.00462
276.80639 -0.00107 0.00507 0.00427 0.00267 0.00267 0.00463
276.81606 0.00505 0.00771 0.00372 0.00425 0.00159 0.00463
276.82574 0.00690 0.00424 0.00504 0.00769 0.00531 0.00463
276.83542 0.00664 0.00478 0.00690 0.00584 0.00345 0.00462
276.84509 0.00212 0.00584 0.00452 0.00398 0.00584 0.00468
276.85477 0.00981 0.00477 0.00583 0.00663 0.00769 0.00468
276.86445 0.00848 0.00716 0.00583 0.00875 0.00875 0.00474
276.87413 0.00980 0.00794 0.00768 0.00715 0.00715 0.00470
276.88377 0.00932 0.00666 0.00746 0.00746 0.00506 0.00471
276.89345 0.00775 0.00695 0.00882 0.00455 0.00775 0.00473
276.90313 0.00456 0.00429 0.00402 0.00375 0.00375 0.00476
276.91280 0.00646 0.00484 0.00538 0.00619 0.00942 0.00486
276.92249 0.00779 0.00779 0.00591 0.00618 0.00753 0.00485
276.93216 0.00618 0.00564 0.00779 0.00107 0.00403 0.00487
276.94183 0.00322 0.00295 0.00536 0.00536 0.00536 0.00491
276.95152 0.00509 0.00187 0.00402 0.00643 0.00402 0.00489
276.96119 0.01119 0.00906 0.01066 0.01252 0.00853 0.00487
276.97087 0.00239 0.00000 0.00000 0.00451 0.00504 0.00489
276.98055 0.00717 0.00531 0.00478 0.00584 0.00744 0.00491
276.99022 0.00426 0.00160 0.00479 0.00372 0.00399 0.00493
276.99990 0.00503 0.00477 0.00397 0.00689 0.00583 0.00494
277.00955 0.00475 0.00396 0.00317 0.00740 0.00449 0.00496
277.01923 0.00369 0.00500 0.00158 0.00606 0.00421 0.00495
277.02890 0.00818 0.00554 0.00554 0.00845 0.00977 0.00496
277.03858 0.00528 0.00158 0.00343 0.00475 0.00396 0.00500
277.04826 0.00211 0.00448 0.00527 0.00343 0.00606 0.00502
277.05793 0.00738 0.00633 0.00395 0.00738 0.00633 0.00504
277.06762 0.00978 0.00978 0.00872 0.01084 0.00925 0.00507
277.07729 0.00238 0.00132 0.00264 0.00291 0.00317 0.00509
277.08694 0.01029 0.00739 0.00475 0.00844 0.01003 0.00510
277.09662 0.00343 0.00634 0.00634 0.00528 0.00581 0.00514
277.10629 0.00530 0.00292 0.00371 0.00451 0.00504 0.00519
277.11598 0.00533 0.00400 0.00266 0.00293 0.00293 0.00519
277.12565 0.00667 0.01014 0.00720 0.00614 0.00694 0.00521
277.13532 0.00508 0.00535 0.00535 0.00508 0.00883 0.00520
277.14498 0.00831 0.00617 0.00751 0.00617 0.00751 0.00526
277.15465 0.00321 0.00482 0.00241 0.00054 0.00241 0.00525
277.16433 0.00346 0.00266 0.00213 0.00559 0.00027 0.00532
277.17401 0.00451 0.00822 0.00451 0.00557 0.00371 0.00529
277.18368 0.00952 0.00847 0.00794 0.01111 0.01217 0.00529
277.19333 0.00741 0.00688 0.00556 0.00582 0.00741 0.00537
277.20301 0.00449 0.00687 0.00449 0.00634 0.00819 0.00535
277.21269 0.01007 0.00689 0.00875 0.00636 0.00636 0.00539
277.22236 0.00743 0.00637 0.00478 0.00849 0.00796 0.00538
277.23201 0.00478 0.00319 0.00558 0.00531 0.00478 0.00542
277.24169 0.00345 0.00133 0.00266 0.00372 0.00212 0.00545
277.25136 0.00822 0.00902 0.00530 0.00636 0.00742 0.00545
277.26105 0.00398 0.00292 0.00292 0.00027 -0.00027 0.00548
277.27069 0.00345 0.00796 0.00292 0.00610 0.00531 0.00549
277.28036 0.00374 0.00428 0.00534 0.00534 0.00214 0.00559
277.29005 0.00564 0.00887 0.00591 0.00806 0.00725 0.00562
277.29972 0.00295 0.00376 0.00188 0.00134 0.00590 0.00564
277.30936 0.00558 0.00452 0.00213 0.00691 0.00398 0.00561
277.31905 0.00290 0.00290 0.00713 0.00660 0.00185 0.00560
277.32872 0.00554 0.00290 0.00132 0.00369 0.00237 0.00564
277.33840 0.00738 0.00817 0.00949 0.00448 0.00501 0.00562
277.34805 0.00423 0.00344 0.00608 0.00687 0.00661 0.00567
277.35772 0.00477 0.00239 0.00530 0.00557 0.00477 0.00576
277.36741 0.00585 0.00612 0.00426 0.00559 0.00532 0.00592
277.37705 0.01144 0.01118 0.01011 0.00878 0.01064 0.00582
277.38673 0.00106 0.00132 0.00106 0.00318 0.00159 0.00581
277.39641 0.00684 0.00579 0.00474 0.00526 0.00395 0.00578
277.40605 0.00497 0.00052 0.00759 0.00367 0.00707 0.00581
277.41573 0.00734 0.00839 0.00760 0.00708 0.00786 0.00578
277.42541 0.00316 0.00501 0.00395 0.00817 0.00237 0.00583
277.43506 0.00551 0.00708 0.00394 0.00236 0.00630 0.00584
277.44473 0.00758 0.00523 0.00706 0.00967 0.00967 0.00586
277.45441 0.00889 0.00680 0.00471 0.00915 0.00732 0.00588
277.46406 0.00680 0.00549 0.00601 0.00732 0.00392 0.00588
277.47373 0.00548 0.00235 0.00235 0.00313 0.00470 0.00590
277.48342 0.00550 0.00759 0.00811 0.00576 0.00419 0.00594
277.49306 0.00552 0.00815 0.00657 0.00578 0.00578 0.00600
277.50273 0.00894 0.00578 0.00894 0.00631 0.00500 0.00601
277.51242 0.00788 0.00604 0.00762 0.00499 0.00604 0.00606
277.52206 0.00947 0.00789 0.00605 0.00631 0.00605 0.00609
277.53173 0.00527 0.00527 0.00342 0.00500 0.00395 0.00613
277.54139 0.00450 0.00583 0.00371 0.00503 0.00503 0.00614
277.55106 0.00611 0.00266 0.00638 0.00399 0.00983 0.00609
277.56074 0.00982 0.00717 0.00584 0.00690 0.00796 0.00623
277.57039 0.00821 0.00847 0.00715 0.00794 0.00450 0.00630
277.58006 0.00475 0.00791 0.00554 0.00580 0.00738 0.00631
277.58971 0.00867 0.00972 0.00420 0.00841 0.00972 0.00634
277.59939 0.00632 0.00738 0.00764 0.00817 0.00869 0.00640
277.60907 0.00554 0.00606 0.00422 0.00448 0.00764 0.00640
277.61871 0.00342 -0.00079 0.00368 0.00500 0.00631 0.00643
277.62839 0.00549 0.00627 0.00523 0.00392 0.00340 0.00646
277.63804 0.00548 0.00339 0.00287 0.00731 0.00444 0.00658
277.64771 0.00340 0.00209 0.00340 0.00418 0.00471 0.00656
277.65736 0.00760 0.00498 0.00891 0.00734 0.00838 0.00658
277.66704 0.00471 0.00445 0.00131 0.00340 0.00576 0.00661
277.67669 0.00761 0.00394 0.00919 0.00604 0.00709 0.00658
277.68637 0.00871 0.00607 0.00528 0.00607 0.00528 0.00670
277.69604 0.00739 0.00607 0.00449 0.00422 0.00686 0.00678
277.70569 0.00842 0.00395 0.00816 0.00710 0.00474 0.00681
277.71537 0.00476 0.00582 0.00555 0.00820 0.00502 0.00680
277.72501 0.00453 0.00692 0.00639 0.00745 0.00745 0.00688
277.73470 0.00906 0.00933 0.00773 0.01012 0.00879 0.00702
277.74434 0.01352 0.00822 0.00822 0.00795 0.01034 0.00704
277.75401 0.01007 0.00769 0.00848 0.00689 0.00981 0.00708
277.76367 0.00451 0.00477 0.00610 0.00663 0.00663 0.00703
277.77334 0.00740 0.00713 0.00793 0.00978 0.00846 0.00708
277.78298 0.00898 0.00819 0.00951 0.01004 0.00687 0.00711
277.79267 0.00768 0.00768 0.00556 0.00715 0.00901 0.00716
277.80231 0.00906 0.00560 0.00480 0.00267 0.00640 0.00727
277.81196 0.00856 0.01017 0.00669 0.00776 0.00936 0.00729
277.82164 0.00746 0.00693 0.00533 0.00746 0.00666 0.00734
277.83128 0.00611 0.00319 0.00638 0.00717 0.00850 0.00737
277.84096 0.00981 0.01034 0.00928 0.00901 0.00928 0.00741
277.85061 0.00979 0.00953 0.00821 0.00794 0.01138 0.00746
277.86028 0.00767 0.00714 0.00767 0.01032 0.00820 0.00750
277.86993 0.00821 0.00795 0.00901 0.00689 0.00848 0.00754
277.87961 0.00665 0.00824 0.00532 0.00665 0.00558 0.00761
277.88926 0.00372 0.00452 0.00505 0.00558 0.00505 0.00769
277.89890 0.00929 0.00558 0.00850 0.00451 0.01062 0.00774
277.90858 0.00799 0.00665 0.00266 0.00639 0.00878 0.00782
277.91823 0.00715 0.00662 0.00768 0.00636 0.00901 0.00779
277.92790 0.01028 0.00738 0.00527 0.00923 0.00817 0.00789
277.93755 0.00289 0.00421 0.00289 0.00684 0.00447 0.00786
277.94720 0.00922 0.00342 0.00658 0.00843 0.00579 0.00793
277.95688 0.00821 0.00847 0.01218 0.00821 0.01033 0.00801
277.96653 0.00843 0.00921 0.00869 0.01158 0.00685 0.00805
277.97620 0.00966 0.00940 0.00496 0.00626 0.00783 0.00804
277.98585 0.00914 0.00836 0.01018 0.00940 0.00992 0.00811
277.99550 0.00730 0.00469 0.00730 0.00678 0.00834 0.00814
278.00517 0.00443 0.00625 0.00651 0.00469 0.00755 0.00819
278.01482 0.00755 0.00755 0.00937 0.01067 0.00729 0.00825
278.02447 0.00942 0.00732 0.00759 0.00680 0.00785 0.00836
278.03414 0.00552 0.00499 0.00998 0.00709 0.00709 0.00843
278.04380 0.00971 0.00814 0.00578 0.00998 0.00998 0.00848
278.05344 0.00705 0.00966 0.00992 0.00809 0.00809 0.00854
278.06311 0.00984 0.00854 0.00699 0.00828 0.00621 0.00858
278.07277 0.00857 0.00649 0.00857 0.00857 0.01065 0.00863
278.08241 0.01011 0.00674 0.00778 0.01063 0.01115 0.00868
278.09208 0.00824 0.01081 0.00747 0.00669 0.01339 0.00874
278.10174 0.00766 0.00817 0.00971 0.00460 0.00894 0.00873
278.11138 0.00843 0.00741 0.00869 0.00664 0.00945 0.00882
278.12106 0.00768 0.00717 0.00896 0.00512 0.01024 0.00888
278.13071 0.01050 0.00845 0.01229 0.00768 0.01024 0.00897
278.14035 0.01155 0.00898 0.00873 0.01052 0.01437 0.00907
278.15003 0.01030 0.01030 0.01107 0.00747 0.00824 0.00912
278.15968 0.00928 0.00902 0.01108 0.00850 0.00902 0.00914
278.16932 0.01053 0.01104 0.01002 0.00976 0.00976 0.00926
278.17897 0.01185 0.01210 0.01030 0.00901 0.01082 0.00942
278.18865 0.00878 0.00903 0.00645 0.00465 0.00439 0.00946
278.19830 0.01378 0.01092 0.01066 0.00988 0.01274 0.00960
278.20794 0.01011 0.00882 0.00648 0.00778 0.01167 0.00967
278.21759 0.00880 0.00750 0.00802 0.00854 0.00957 0.00967
278.22727 0.01216 0.00957 0.01060 0.01241 0.01267 0.00977
278.23692 0.01185 0.01211 0.00644 0.01262 0.01211 0.00982
278.24656 0.00875 0.00695 0.00746 0.00489 0.00849 0.00988
278.25621 0.00723 0.01059 0.00930 0.00749 0.00904 0.01003
278.26589 0.01296 0.01037 0.01088 0.01244 0.01244 0.01014
278.27554 0.00931 0.01035 0.00698 0.00957 0.01164 0.01023
278.28518 0.01058 0.01161 0.01187 0.01393 0.01032 0.01031
278.29483 0.01213 0.01187 0.01109 0.01058 0.01625 0.01039
278.30448 0.00903 0.00722 0.00671 0.01058 0.00903 0.01047
278.31415 0.00850 0.00798 0.00772 0.00541 0.00875 0.01054
278.32380 0.01083 0.00619 0.00825 0.01367 0.01083 0.01044
278.33345 0.00959 0.00726 0.01063 0.00648 0.00907 0.01083
278.34309 0.01742 0.00988 0.00884 0.01040 0.01014 0.01091
278.35274 0.01148 0.01017 0.01252 0.00991 0.01226 0.01106
278.36242 0.01119 0.01145 0.01197 0.01249 0.01301 0.01133
278.37206 0.01560 0.00910 0.01300 0.01300 0.00962 0.01133
278.38172 0.01043 0.00652 0.00782 0.00678 0.00861 0.01132
278.39136 0.01194 0.00986 0.00908 0.01090 0.01479 0.01139
278.40100 0.01267 0.01137 0.01086 0.01318 0.01448 0.01156
278.41066 0.01600 0.01316 0.01264 0.01445 0.01187 0.01164
278.42033 0.01597 0.01056 0.01236 0.00927 0.01210 0.01176
278.42997 0.01004 0.01184 0.00850 0.00901 0.01210 0.01182
278.43963 0.01158 0.01261 0.01158 0.01210 0.01544 0.01196
278.44927 0.01808 0.01059 0.01446 0.01394 0.01420 0.01211
278.45891 0.01189 0.00982 0.01266 0.01240 0.01163 0.01217
278.46857 0.01092 0.00780 0.00806 0.01274 0.01092 0.01235
278.47821 0.01465 0.01125 0.01282 0.01282 0.01412 0.01261
278.48786 0.01417 0.01312 0.01102 0.01128 0.01338 0.01274
278.49751 0.01372 0.00897 0.00792 0.01082 0.01266 0.01293
278.50718 0.01673 0.01568 0.01725 0.01385 0.01359 0.01301
278.51684 0.01272 0.01272 0.01065 0.01610 0.01558 0.01312
278.52648 0.01663 0.01741 0.01533 0.01221 0.01845 0.01328
278.53612 0.01568 0.01568 0.01620 0.01803 0.01490 0.01346
278.54578 0.01264 0.01423 0.01212 0.01291 0.01581 0.01364
278.55542 0.01290 0.01290 0.01369 0.01264 0.01422 0.01378
278.56506 0.01053 0.01132 0.00921 0.00869 0.00974 0.01389
278.57472 0.01546 0.01337 0.01363 0.01363 0.01310 0.01366
278.58436 0.01662 0.01350 0.01220 0.01091 0.01454 0.00304
278.59400 0.01881 0.01778 0.01417 0.01700 0.01571 0.01280
278.60366 0.01516 0.01105 0.01233 0.01182 0.01233 0.01430
278.61330 0.01598 0.01392 0.01366 0.01418 0.01727 0.01451
278.62295 0.01885 0.01626 0.01626 0.01420 0.01497 0.01474
278.63260 0.01441 0.00901 0.01390 0.01261 0.01184 0.01490
278.64224 0.01598 0.01340 0.01701 0.01572 0.01469 0.01514
278.65189 0.01339 0.01081 0.00824 0.01030 0.01519 0.01533
278.66154 0.01958 0.01572 0.01855 0.01649 0.01726 0.01546
278.67118 0.01542 0.01876 0.01362 0.01182 0.01568 0.01558
278.68083 0.01906 0.01571 0.01468 0.01880 0.01597 0.01589
278.69048 0.02092 0.01989 0.01420 0.01653 0.01730 0.01615
278.70012 0.01687 0.01479 0.01531 0.02076 0.01687 0.01637
278.70977 0.01775 0.01540 0.01592 0.01697 0.01566 0.01670
278.71942 0.01464 0.01543 0.01308 0.01517 0.01647 0.01695
278.72906 0.01701 0.01779 0.01518 0.01910 0.01832 0.01713
278.73871 0.01711 0.01478 0.01737 0.01685 0.01971 0.01732
278.74836 0.01466 0.01697 0.01826 0.01466 0.01620 0.01754
278.75800 0.01691 0.01588 0.01665 0.01614 0.01870 0.01766
278.76766 0.01489 0.01181 0.01541 0.01387 0.01592 0.01796
278.77730 0.01884 0.01600 0.01729 0.01626 0.01884 0.01819
278.78695 0.01840 0.01581 0.01711 0.01633 0.02074 0.01851
278.79660 0.01934 0.01573 0.01753 0.01753 0.01650 0.01872
278.80624 0.01865 0.01610 0.01482 0.01738 0.02172 0.01892
278.81589 0.01784 0.01682 0.01580 0.01733 0.01886 0.01916
278.82554 0.01870 0.01845 0.01819 0.01845 0.01819 0.01936
278.83518 0.01666 0.01312 0.01767 0.01716 0.01590 0.01968
278.84483 0.01873 0.01948 0.01721 0.01797 0.01746 0.01991
278.85448 0.01754 0.01856 0.01627 0.01601 0.01576 0.02035
278.86412 0.02012 0.01986 0.01833 0.02241 0.01910 0.02061
278.87374 0.02169 0.02067 0.02143 0.01786 0.02246 0.02096
278.88339 0.01858 0.01858 0.02062 0.01858 0.01858 0.02122
278.89303 0.02385 0.01827 0.01903 0.01928 0.02258 0.02145
278.90268 0.02634 0.02381 0.02330 0.01950 0.02204 0.02194
278.91233 0.02155 0.02028 0.01597 0.01952 0.02129 0.02218
278.92197 0.02340 0.02111 0.02187 0.02111 0.02314 0.02255
278.93162 0.02372 0.02091 0.02244 0.02091 0.02270 0.02292
278.94127 0.02430 0.02225 0.02174 0.02225 0.02916 0.02332
278.95088 0.02434 0.02049 0.02229 0.02818 0.02587 0.02388
278.96053 0.02899 0.02309 0.02591 0.02412 0.02591 0.02427
278.97018 0.02413 0.02772 0.02310 0.02669 0.02695 0.02462
278.97983 0.02360 0.02308 0.02437 0.02385 0.02385 0.02507
278.98947 0.02795 0.02692 0.02231 0.02384 0.02872 0.02553
278.99912 0.02781 0.02266 0.02163 0.02266 0.02575 0.02593
279.00877 0.02885 0.02808 0.02653 0.02602 0.02834 0.02634
279.01839 0.02887 0.02552 0.02475 0.02655 0.02887 0.02685
279.02803 0.02720 0.02592 0.02617 0.02592 0.02771 0.02733
279.03768 0.02943 0.02380 0.02380 0.02738 0.02636 0.02788
279.04733 0.02851 0.02520 0.02342 0.03106 0.02775 0.02813
279.05697 0.02639 0.02512 0.02512 0.02538 0.02690 0.02861
279.06659 0.02596 0.02290 0.02646 0.02596 0.02977 0.02915
279.07624 0.02825 0.02189 0.02367 0.02087 0.02647 0.02960
279.08588 0.02859 0.02425 0.02885 0.02655 0.02859 0.03007
279.09553 0.03322 0.02807 0.02627 0.02884 0.03065 0.03083
279.10518 0.03063 0.02647 0.02596 0.03037 0.03141 0.03144
279.11479 0.03349 0.03140 0.02931 0.03166 0.03140 0.03220
279.12444 0.02982 0.02668 0.02721 0.02773 0.02878 0.03268
279.13409 0.03723 0.03015 0.02989 0.03382 0.03513 0.03336
279.14373 0.03451 0.02951 0.03030 0.03346 0.03504 0.03405
279.15335 0.03720 0.03374 0.03534 0.03242 0.03614 0.03486
279.16300 0.03826 0.03029 0.02976 0.03215 0.03321 0.03548
279.17264 0.03289 0.02838 0.03104 0.03263 0.03475 0.03623
279.18229 0.04085 0.03289 0.03395 0.03183 0.03475 0.03690
279.19191 0.03528 0.03024 0.03422 0.03343 0.03316 0.03760
279.20155 0.03914 0.03541 0.03674 0.03834 0.03727 0.03841
279.21120 0.03941 0.03462 0.03435 0.03435 0.03489 0.03910
279.22082 0.03703 0.03170 0.03809 0.03490 0.03596 0.03988
279.23046 0.04306 0.03589 0.03721 0.03828 0.04067 0.04063
279.24011 0.04302 0.03273 0.04144 0.03854 0.04461 0.04117
279.24976 0.04051 0.03476 0.03685 0.04130 0.03921 0.04175
279.25937 0.04266 0.03902 0.03746 0.03876 0.04448 0.04251
279.26903 0.04412 0.03916 0.03994 0.03942 0.04307 0.04334
279.27867 0.04380 0.03856 0.03856 0.04013 0.04144 0.04446
279.28829 0.04304 0.03963 0.03858 0.03858 0.04120 0.04545
279.29794 0.04709 0.04078 0.04130 0.04130 0.04656 0.04648
279.30758 0.04711 0.04106 0.04237 0.04079 0.04948 0.04744
279.31720 0.04836 0.03969 0.04179 0.04021 0.04915 0.04825
279.32685 0.04722 0.03988 0.04355 0.04460 0.04906 0.04943
279.33649 0.04984 0.04511 0.04695 0.04905 0.04852 0.05030
279.34611 0.05048 0.04233 0.04049 0.04654 0.05101 0.05127
279.35576 0.05267 0.04817 0.04870 0.04631 0.05055 0.05283
279.36537 0.05204 0.04779 0.04965 0.04275 0.04992 0.05393
279.37502 0.05148 0.04617 0.04829 0.04962 0.05758 0.05528
279.38467 0.05437 0.04483 0.04589 0.04960 0.05331 0.05653
279.39428 0.05417 0.04545 0.04915 0.04994 0.05470 0.05730
279.40393 0.05917 0.04817 0.05315 0.05550 0.05995 0.05883
279.41358 0.05958 0.05125 0.05385 0.05516 0.05958 0.06024
279.42319 0.06288 0.05187 0.05711 0.05633 0.06471 0.06204
279.43284 0.06380 0.05378 0.05773 0.05457 0.06327 0.06289
279.44246 0.06613 0.05243 0.05506 0.06217 0.06771 0.06362
279.45210 0.06638 0.05532 0.05901 0.05637 0.06270 0.06396
279.46175 0.07083 0.05793 0.06240 0.06425 0.06951 0.06421
279.47137 0.06454 0.05928 0.06033 0.05796 0.06639 0.06474
279.48101 0.06989 0.06204 0.06047 0.06440 0.06937 0.06447
279.49063 0.07183 0.06064 0.06324 0.06090 0.06949 0.06432
279.50028 0.07543 0.06499 0.06916 0.06760 0.07673 0.06477
279.50989 0.07307 0.06312 0.06678 0.06574 0.07909 0.06511
279.51955 0.07600 0.06840 0.07285 0.07259 0.08098 0.06528
279.52916 0.07547 0.06840 0.07102 0.07023 0.08150 0.06544
279.53880 0.07989 0.07046 0.07360 0.07648 0.08172 0.06555
279.54846 0.08501 0.06801 0.07115 0.07141 0.08240 0.06554
279.55807 0.08852 0.07568 0.08145 0.07778 0.08537 0.06581
279.56771 0.08759 0.07762 0.07684 0.07972 0.08785 0.06601
279.57734 0.09653 0.07859 0.08598 0.08360 0.09257 0.06646
279.58698 0.09367 0.07969 0.08470 0.08074 0.09394 0.06671
279.59659 0.09752 0.08434 0.08724 0.08777 0.09805 0.06655
279.60625 0.10264 0.08948 0.08738 0.08922 0.09975 0.06621
279.61586 0.10476 0.08900 0.09347 0.08927 0.10318 0.06654
279.62550 0.10944 0.09321 0.09792 0.09347 0.10656 0.06608
279.63513 0.11010 0.08897 0.09680 0.09575 0.10775 0.06610
279.64477 0.11491 0.09375 0.10420 0.10028 0.11648 0.06635
279.65438 0.12471 0.10008 0.10532 0.10716 0.11973 0.06653
279.66404 0.12542 0.10417 0.11256 0.10784 0.12175 0.06654
279.67365 0.12511 0.10604 0.11623 0.11100 0.12458 0.06644
279.68329 0.13058 0.10925 0.11965 0.11679 0.13110 0.06600
279.69292 0.13838 0.11367 0.11835 0.11523 0.13864 0.06639
279.70253 0.14230 0.12053 0.12441 0.12001 0.14230 0.06616
279.71217 0.14836 0.12368 0.13114 0.12908 0.14528 0.06530
279.72179 0.15227 0.12407 0.13433 0.12920 0.14663 0.06520
279.73144 0.15702 0.13115 0.13884 0.13627 0.15421 0.06543
279.74105 0.16541 0.13289 0.15030 0.14032 0.16618 0.06550
279.75070 0.17071 0.14453 0.14992 0.14581 0.17174 0.06567
279.76032 0.17453 0.14949 0.16240 0.15465 0.17969 0.06605
279.76994 0.18639 0.15528 0.16669 0.15943 0.18691 0.06625
279.77958 0.19766 0.16031 0.17328 0.16861 0.19689 0.06639
279.78920 0.20309 0.17062 0.18660 0.17783 0.20154 0.06598
279.79885 0.21215 0.17760 0.18477 0.18477 0.20780 0.06562
279.80846 0.22018 0.17895 0.19168 0.18862 0.21713 0.06494
279.81808 0.22482 0.18807 0.20403 0.18984 0.22558 0.06505
279.82773 0.23720 0.19205 0.20778 0.20118 0.23492 0.06494
279.83734 0.25034 0.20357 0.22289 0.21145 0.25008 0.06518
279.84699 0.26113 0.21238 0.22718 0.21774 0.25194 0.06530
279.85661 0.27151 0.21869 0.24064 0.22686 0.26769 0.06551
279.86622 0.28258 0.23442 0.25175 0.24385 0.28334 0.06537
279.87587 0.30095 0.24218 0.26279 0.25261 0.28645 0.06516
279.88549 0.31379 0.25709 0.27972 0.26039 0.30718 0.06499
279.89510 0.32272 0.26665 0.28492 0.27350 0.31815 0.06523
279.90475 0.33707 0.27456 0.29752 0.28604 0.33222 0.06556
279.91437 0.35726 0.29268 0.31702 0.30011 0.34932 0.06589
279.92398 0.37644 0.30511 0.32564 0.31383 0.36464 0.06599
279.93363 0.38777 0.31868 0.34621 0.32327 0.38649 0.06541
279.94325 0.40277 0.32912 0.35863 0.33896 0.39798 0.06490
279.95286 0.42451 0.34419 0.37617 0.35199 0.41544 0.06477
279.96251 0.44542 0.35407 0.39358 0.36640 0.43586 0.06481
279.97213 0.46039 0.37900 0.41327 0.38983 0.45989 0.06416
279.98174 0.48271 0.39465 0.42770 0.40348 0.47212 0.06507
279.99140 0.50633 0.41285 0.45302 0.42018 0.49724 0.06518
280.00101 0.53442 0.43246 0.46988 0.44703 0.52438 0.06466
280.01062 0.55699 0.44364 0.49179 0.45919 0.54696 0.06467
280.02024 0.58536 0.46928 0.51088 0.48024 0.56443 0.06419
280.02989 0.61351 0.48609 0.53328 0.50298 0.59811 0.06401
280.03950 0.63319 0.51205 0.55640 0.52444 0.62155 0.06372
280.04912 0.66876 0.54121 0.59059 0.54692 0.65461 0.06371
280.05874 0.69483 0.55914 0.61346 0.56732 0.68069 0.06403
280.06838 0.73292 0.58927 0.63972 0.60244 0.71204 0.06405
280.07800 0.76035 0.61017 0.67904 0.62882 0.75090 0.06409
280.08762 0.80739 0.64656 0.70622 0.66172 0.78999 0.06416
280.09723 0.84540 0.67637 0.74348 0.68830 0.82999 0.06402
280.10688 0.89243 0.71484 0.77994 0.72407 0.87173 0.06433
280.11650 0.92922 0.74892 0.81910 0.76241 0.91449 0.06434
280.12611 0.98576 0.78361 0.86796 0.79784 0.96504 0.06439
280.13573 1.03378 0.82165 0.89999 0.83782 1.00991 0.06419
280.14538 1.09135 0.86480 0.95453 0.87752 1.05397 0.06434
280.15499 1.14509 0.90743 0.99889 0.92567 1.10985 0.06450
280.16461 1.20805 0.95685 1.06313 0.97528 1.18659 0.06516
280.17423 1.28465 1.00803 1.11205 1.01993 1.25124 0.06510
280.18384 1.35121 1.06154 1.17559 1.07466 1.31336 0.06511
280.19349 1.42380 1.11209 1.24230 1.13698 1.38081 0.06499
280.20310 1.51552 1.18749 1.31710 1.20226 1.47273 0.06469
280.21272 1.59272 1.24123 1.38593 1.26501 1.56118 0.06424
280.22234 1.68957 1.32111 1.47005 1.32689 1.65491 0.06491
280.23195 1.78909 1.39059 1.56457 1.40568 1.74736 0.06487
280.24158 1.91633 1.47455 1.65883 1.49109 1.86318 0.06475
280.25122 2.04146 1.56991 1.75908 1.57788 1.98538 0.06395
280.26083 2.19607 1.67718 1.87135 1.68820 2.13543 0.06449
280.27046 2.32221 1.77894 2.00069 1.78767 2.26134 0.06416
280.28007 2.49234 1.90413 2.14895 1.92285 2.42820 0.06418
280.28968 2.67956 2.04086 2.29360 2.02666 2.60685 0.06439
280.29931 2.87825 2.17595 2.46689 2.17495 2.79523 0.06449
280.30892 3.10404 2.32497 2.65287 2.32148 3.01845 0.06451
280.31853 3.35627 2.50317 2.87093 2.51570 3.25976 0.06480
280.32819 3.59830 2.70642 3.08780 2.69966 3.52848 0.06456
280.33780 3.92560 2.91449 3.35218 2.90668 3.82789 0.06502
280.34741 4.23736 3.14492 3.61774 3.13809 4.13560 0.06547
280.35703 4.60535 3.41129 3.92299 3.36976 4.47120 0.06505
280.36665 5.03153 3.71428 4.28938 3.66119 4.89694 0.06494
280.37626 5.47984 4.03552 4.65412 3.97497 5.34765 0.06529
280.38588 5.96701 4.38014 5.09235 4.31571 5.80835 0.06524
280.39550 6.54185 4.78086 5.60074 4.72202 6.38665 0.06551
280.40511 7.17979 5.24096 6.12218 5.12718 6.95147 0.06577
280.41473 7.86902 5.73643 6.70072 5.59173 7.65096 0.06605
280.42435 8.56978 6.28599 7.35320 6.12222 8.36590 0.06647
280.43396 9.41570 6.88745 8.08027 6.67972 9.15752 0.06655
280.44358 10.28994 7.55361 8.87676 7.33677 10.03015 0.06638
280.45323 11.28799 8.29088 9.77196 8.05834 11.01665 0.06644
280.46285 12.27634 9.11826 10.65672 8.82777 12.03183 0.06643
280.47246 13.39038 9.99776 11.69664 9.68994 13.10826 0.06634
280.48207 14.60418 10.97135 12.79110 10.59545 14.25624 0.06630
280.49170 15.78850 12.00540 13.96703 11.61754 15.48920 0.06645
280.50131 17.07752 13.12597 15.21877 12.68231 16.74471 0.06636
280.51092 18.36214 14.23668 16.43150 13.76429 17.98089 0.06643
280.52055 19.64759 15.43566 17.72298 14.96242 19.27202 0.06646
280.53016 20.93719 16.65946 18.97735 16.20901 20.45019 0.06640
280.53977 22.13178 17.84755 20.18505 17.41309 21.60302 0.06649
280.54940 23.25868 19.01093 21.32572 18.63498 22.66585 0.06613
280.55901 24.29926 20.15301 22.32544 19.78388 23.60796 0.06587
280.56862 25.17239 21.14411 23.33017 20.91249 24.39343 0.06605
280.57824 25.91233 22.03456 24.04249 21.88420 25.06436 0.06622
280.58786 26.53470 22.80629 24.65917 22.86200 25.58091 0.06570
280.59744 26.95437 23.42407 25.13839 23.60081 25.93942 0.06542
280.60706 27.34056 23.90522 25.44154 24.20495 26.17403 0.06534
280.61668 27.58412 24.20084 25.63507 24.72680 26.31989 0.06550
280.62629 27.64200 24.36038 25.64880 24.96021 26.31843 0.06542
280.63591 27.70123 24.38365 25.54676 25.16979 26.17156 0.06549
280.64553 27.66350 24.35116 25.46080 25.21458 26.01320 0.06602
280.65514 27.57977 24.17804 25.16649 25.12665 25.76681 0.06569
280.66476 27.33080 23.92549 24.93041 24.99330 25.47067 0.06594
280.67437 27.11143 23.63261 24.56801 24.72795 25.12819 0.06541
280.68400 26.84506 23.28766 24.21498 24.48673 24.83554 0.06509
280.69361 26.49740 22.85417 23.78223 24.11014 24.38516 0.06516
280.70322 26.21522 22.43068 23.32317 23.78595 24.01885 0.06482
280.71285 25.84889 22.11248 23.00715 23.45000 23.68760 0.06438
280.72246 25.49250 21.71857 22.63887 23.03389 23.28232 0.06399
280.73204 25.13456 21.30120 22.18414 22.62623 22.86562 0.06419
280.74167 24.67657 20.91871 21.84640 22.26192 22.53296 0.06453
280.75128 24.31596 20.54692 21.44357 21.79472 22.18170 0.06436
280.76089 23.92496 20.26052 21.12496 21.55231 21.80314 0.06445
280.77051 23.41601 19.83758 20.71163 21.14069 21.41551 0.06432
280.78013 22.89784 19.52034 20.33624 20.79072 20.98607 0.06425
280.78974 22.39231 19.19072 19.97965 20.44864 20.62274 0.06416
280.79933 21.80543 18.79137 19.54600 20.01275 20.16759 0.06411
280.80895 21.12928 18.43258 19.06172 19.62693 19.68937 0.06418
280.81856 20.56458 18.07005 18.68935 19.29105 19.24991 0.06420
280.82818 19.84407 17.75325 18.21502 18.96245 18.76388 0.06375
280.83780 19.11126 17.33627 17.72082 18.60758 18.24131 0.06382
280.84741 18.34296 16.94017 17.20610 18.21534 17.64741 0.06450
280.85700 17.49846 16.53083 16.66415 17.83563 17.09850 0.06458
280.86661 16.64514 16.08132 16.09998 17.32137 16.42777 0.06437
280.87623 15.77637 15.57400 15.44999 16.84408 15.75566 0.06463
280.88585 14.97039 15.18389 14.93766 16.45283 15.20983 0.06514
280.89546 14.08946 14.64072 14.26920 15.92021 14.44468 0.06492
280.90505 13.07371 13.92562 13.44161 15.24223 13.59758 0.06415
280.91467 12.29123 13.47856 12.89062 14.78950 12.95941 0.06396
280.92428 11.45358 12.82582 12.19099 14.13249 12.20589 0.06428
280.93390 10.62851 12.25829 11.49645 13.52512 11.47215 0.06406
280.94352 9.85972 11.61136 10.78901 12.85456 10.77785 0.06431
280.95310 9.13889 10.96827 10.09389 12.14024 10.07025 0.06445
280.96272 8.42355 10.36996 9.44941 11.54978 9.42584 0.06487
280.97234 7.77199 9.71386 8.80521 10.87039 8.72359 0.06496
280.98195 7.18092 9.12193 8.16774 10.20885 8.11856 0.06508
280.99154 6.62464 8.55753 7.60417 9.60428 7.54929 0.06527
281.00115 6.09261 7.94644 7.00095 8.94489 6.95753 0.06468
281.01077 5.60606 7.44116 6.50820 8.36460 6.45307 0.06500
281.02039 5.15295 6.86437 6.01551 7.78971 5.95073 0.06430
281.02997 4.75736 6.37202 5.55204 7.23370 5.50935 0.06438
281.03959 4.35316 5.92320 5.12728 6.71540 5.08960 0.06420
281.04921 4.01041 5.46182 4.71881 6.21570 4.68223 0.06422
281.05879 3.71425 5.05827 4.37696 5.78351 4.34396 0.06438
281.06841 3.39160 4.67141 4.02217 5.35401 3.97263 0.06460
281.07803 3.15380 4.31238 3.71206 4.92822 3.68402 0.06501
281.08761 2.90029 3.98971 3.42855 4.55892 3.41448 0.06502
281.09722 2.68489 3.68489 3.17196 4.20861 3.15238 0.06511
281.10685 2.48797 3.39854 2.93069 3.88523 2.91863 0.06503
281.11646 2.29429 3.14894 2.71119 3.59422 2.70742 0.06537
281.12604 2.14057 2.91809 2.51631 3.34816 2.51181 0.06502
281.13567 1.98180 2.68946 2.32482 3.07872 2.32109 0.06453
281.14528 1.84475 2.49833 2.15817 2.84223 2.14992 0.06493
281.15487 1.70279 2.30705 1.99014 2.64200 1.98363 0.06494
281.16448 1.58797 2.14714 1.85661 2.42736 1.85586 0.06529
281.17407 1.48469 1.97774 1.71611 2.27135 1.72945 0.06494
281.18369 1.37198 1.86068 1.59612 2.09587 1.61219 0.06522
281.19330 1.29331 1.71850 1.48817 1.98031 1.50441 0.06488
281.20289 1.20546 1.60876 1.39584 1.82985 1.40253 0.06416
281.21251 1.12348 1.48693 1.30005 1.69417 1.30717 0.06374
281.22212 1.05493 1.39047 1.20578 1.57909 1.21730 0.06314
281.23170 0.99087 1.30312 1.12522 1.46920 1.14884 0.06384
281.24133 0.92487 1.21478 1.07142 1.37162 1.07705 0.06361
281.25091 0.87495 1.13545 0.99823 1.28613 1.00948 0.06355
281.26052 0.82107 1.06113 0.93731 1.20351 0.94537 0.06345
281.27015 0.76889 0.99021 0.87625 1.12765 0.89165 0.06309
281.27973 0.72755 0.93563 0.82594 1.06691 0.84435 0.06365
281.28934 0.68156 0.87856 0.77652 0.99036 0.78042 0.06339
281.29893 0.64441 0.82864 0.73004 0.92968 0.73738 0.06349
281.30855 0.61410 0.77274 0.68603 0.88285 0.70623 0.06398
281.31813 0.58183 0.73642 0.65172 0.82261 0.66950 0.06424
281.32775 0.55071 0.69419 0.61763 0.77741 0.63171 0.06382
281.33736 0.51874 0.65349 0.58278 0.73805 0.59019 0.06390
281.34696 0.49494 0.60928 0.55013 0.68946 0.56028 0.06426
281.35657 0.47054 0.58074 0.51629 0.65084 0.53769 0.06370
281.36615 0.45089 0.55027 0.49446 0.61734 0.50474 0.06358
281.37578 0.42283 0.51904 0.47349 0.58480 0.47519 0.06327
281.38536 0.40388 0.48764 0.44295 0.54747 0.45345 0.06345
281.39497 0.38225 0.46366 0.42467 0.52250 0.43350 0.06372
281.40456 0.36871 0.44457 0.40848 0.49612 0.41388 0.06384
281.41418 0.35068 0.42466 0.38232 0.47309 0.39132 0.06332
281.42376 0.33410 0.40125 0.36149 0.44223 0.37774 0.06298
281.43338 0.32272 0.37824 0.34541 0.42675 0.35893 0.06264
281.44297 0.29902 0.36319 0.32642 0.39949 0.34084 0.06239
281.45258 0.29043 0.34502 0.31102 0.38357 0.32515 0.06218
281.46217 0.27490 0.32672 0.30177 0.36438 0.30657 0.06243
281.47178 0.26739 0.32198 0.28865 0.35435 0.29227 0.06255
281.48137 0.25125 0.29609 0.26861 0.32961 0.28115 0.06270
281.49099 0.23511 0.28421 0.26244 0.31445 0.26801 0.06284
281.50057 0.23443 0.27326 0.24559 0.30432 0.25457 0.06308
281.51018 0.22564 0.25750 0.24181 0.29056 0.24760 0.06270
281.51978 0.21425 0.25068 0.23042 0.27626 0.23910 0.06271
281.52936 0.21001 0.23956 0.22261 0.26500 0.23060 0.06299
281.53897 0.19637 0.22768 0.20851 0.25681 0.22040 0.06307
281.54857 0.19232 0.21793 0.20126 0.24499 0.21334 0.06270
281.55818 0.18750 0.21509 0.19694 0.23396 0.20541 0.06287
281.56777 0.17779 0.20337 0.19203 0.22846 0.19565 0.06269
281.57738 0.16989 0.19298 0.17815 0.21291 0.18617 0.06318
281.58697 0.15993 0.18841 0.16967 0.19986 0.17649 0.06335
281.59656 0.16018 0.18009 0.16892 0.19610 0.17426 0.06317
281.60617 0.15598 0.17739 0.16352 0.19272 0.16742 0.06308
281.61575 0.15227 0.16740 0.15715 0.17984 0.15983 0.06356
281.62538 0.14392 0.16335 0.15499 0.17861 0.15770 0.06389
281.63496 0.14296 0.15379 0.14616 0.17249 0.14690 0.06401
281.64454 0.13813 0.14964 0.14107 0.16238 0.14842 0.06364
281.65417 0.13058 0.14547 0.13571 0.16255 0.14083 0.06348
281.66375 0.12652 0.14015 0.13017 0.15475 0.13431 0.06282
281.67333 0.12308 0.13657 0.12621 0.15175 0.13440 0.06262
281.68295 0.11695 0.13314 0.12638 0.14257 0.12734 0.06261
281.69254 0.11517 0.12726 0.11855 0.13864 0.12436 0.06255
281.70212 0.11231 0.11618 0.11497 0.13308 0.11738 0.06270
281.71174 0.10619 0.11642 0.10838 0.12908 0.11642 0.06273
281.72132 0.10157 0.11640 0.11202 0.12636 0.10983 0.06316
281.73091 0.10238 0.11261 0.10311 0.11944 0.10823 0.06343
281.74053 0.09697 0.10726 0.10261 0.11534 0.10383 0.06372
281.75011 0.09462 0.10486 0.09852 0.11535 0.10023 0.06340
281.75970 0.09470 0.10555 0.09815 0.11073 0.10185 0.06408
281.76932 0.08854 0.09446 0.08952 0.10580 0.09618 0.06414
281.77890 0.09232 0.09724 0.09429 0.10463 0.10020 0.06402
281.78849 0.08991 0.09753 0.08942 0.10170 0.09138 0.06391
281.79811 0.08447 0.08987 0.08447 0.09994 0.08963 0.06390
281.80769 0.08092 0.09029 0.08363 0.09671 0.08610 0.06409
281.81728 0.08053 0.08596 0.08176 0.09288 0.08448 0.06390
281.82689 0.07501 0.07699 0.07674 0.08390 0.07501 0.06417
281.83648 0.07653 0.07900 0.07801 0.08813 0.07752 0.06358
281.84607 0.07507 0.07927 0.07557 0.08545 0.07557 0.06428
281.85565 0.06964 0.07749 0.07062 0.08435 0.07626 0.06345
281.86526 0.06972 0.07312 0.06948 0.07919 0.07288 0.06317
281.87486 0.06747 0.06916 0.06480 0.07378 0.07086 0.06296
281.88444 0.06545 0.06787 0.06472 0.07224 0.06812 0.06286
281.89402 0.06514 0.06974 0.06490 0.07507 0.06926 0.06253
281.90365 0.06238 0.06334 0.05925 0.06768 0.06406 0.06243
281.91323 0.05420 0.06049 0.05783 0.06508 0.05904 0.06254
281.92281 0.05773 0.06186 0.06259 0.06816 0.06525 0.06283
281.93240 0.06054 0.06273 0.05641 0.06783 0.06005 0.06286
281.94199 0.05660 0.06098 0.05806 0.06535 0.05879 0.06281
281.95160 0.05601 0.06088 0.05893 0.06356 0.05942 0.06299
281.96119 0.05489 0.05587 0.05514 0.05928 0.05831 0.06297
281.97077 0.04962 0.05524 0.05279 0.06184 0.05573 0.06263
281.98037 0.05015 0.05285 0.04769 0.05777 0.05580 0.06335
281.98995 0.05096 0.05464 0.05243 0.05635 0.05415 0.06295
281.99956 0.05062 0.05257 0.05135 0.05575 0.05306 0.06252
282.00915 0.05118 0.05433 0.05166 0.05433 0.05142 0.06201
282.01874 0.04782 0.04975 0.04806 0.05337 0.05144 0.06151
282.02832 0.04781 0.04805 0.04660 0.05263 0.05215 0.06120
282.03791 0.04669 0.04839 0.04500 0.05081 0.04839 0.06095
282.04749 0.04329 0.04353 0.04425 0.04764 0.04546 0.06013
282.05711 0.04503 0.04358 0.04794 0.04988 0.04964 0.05792
282.06670 0.04447 0.04471 0.04302 0.05051 0.04712 0.04421
282.07628 0.03934 0.03958 0.03670 0.04582 0.03958 0.04265
282.08586 0.04200 0.04392 0.04200 0.04224 0.04176 0.04168
282.09546 0.03805 0.04233 0.03972 0.04519 0.04305 0.04074
282.10504 0.03965 0.04250 0.04013 0.04511 0.04250 0.03989
282.11462 0.03992 0.03968 0.04039 0.04467 0.04182 0.03912
282.12422 0.03623 0.03694 0.03408 0.03932 0.03861 0.03833
282.13383 0.03658 0.03730 0.03350 0.04039 0.03611 0.03755
282.14341 0.03289 0.03789 0.03432 0.04075 0.03646 0.03683
282.15300 0.03668 0.03787 0.03548 0.03548 0.03739 0.03613
282.16259 0.03451 0.03498 0.03712 0.03855 0.03593 0.03533
282.17217 0.03214 0.03381 0.03048 0.03714 0.03833 0.03462
282.18176 0.03470 0.03518 0.03494 0.03710 0.03422 0.03412
282.19134 0.03332 0.03523 0.03523 0.03737 0.03475 0.03319
282.20094 0.03111 0.03207 0.03327 0.03423 0.02896 0.03295
282.21052 0.03711 0.03378 0.03450 0.03474 0.03569 0.03197
282.22010 0.03228 0.03348 0.03252 0.03491 0.03635 0.03166
282.22969 0.02696 0.03105 0.02937 0.02985 0.02792 0.03113
282.23928 0.02986 0.03034 0.03082 0.03636 0.03106 0.03054
282.24886 0.03150 0.03101 0.03150 0.03440 0.03174 0.03021
282.25845 0.02874 0.02754 0.02536 0.03164 0.02778 0.02955
282.26803 0.02507 0.03278 0.02989 0.02772 0.02868 0.02896
282.27762 0.02644 0.03197 0.02957 0.03366 0.03077 0.02854
282.28721 0.02820 0.02724 0.02796 0.03130 0.02987 0.02788
282.29679 0.02726 0.02583 0.02631 0.02607 0.02583 0.02749
282.30637 0.02869 0.02751 0.02798 0.03012 0.02917 0.02686
282.31597 0.02516 0.02682 0.02469 0.02801 0.02564 0.02649
282.32555 0.02692 0.02409 0.02480 0.02385 0.02621 0.02595
282.33513 0.02515 0.02633 0.02562 0.02727 0.02750 0.02549
282.34472 0.02697 0.02673 0.02555 0.02815 0.02721 0.02518
282.35431 0.02261 0.02426 0.02426 0.02355 0.02261 0.02460
282.36389 0.02572 0.02407 0.02596 0.02454 0.02407 0.02434
282.37348 0.03184 0.02287 0.02405 0.02877 0.02924 0.02391
282.38306 0.02240 0.02476 0.02452 0.02523 0.02452 0.02353
282.39266 0.02242 0.02290 0.02101 0.02242 0.02479 0.02319
282.40224 0.02366 0.02460 0.02484 0.02697 0.02768 0.02294
282.41182 0.02225 0.01704 0.02059 0.02012 0.01964 0.02249
282.42141 0.02519 0.02471 0.02376 0.02543 0.02281 0.02220
282.43100 0.02453 0.02405 0.02405 0.02429 0.02429 0.02180
282.44058 0.02467 0.02040 0.02206 0.02539 0.02301 0.02166
282.45017 0.02068 0.02068 0.01711 0.02329 0.02234 0.02124
282.45975 0.02386 0.02553 0.02219 0.02696 0.02314 0.02095
282.46934 0.02179 0.02203 0.02036 0.02179 0.02108 0.02075
282.47893 0.01815 0.02078 0.02245 0.01959 0.02197 0.02033
282.48851 0.01559 0.01727 0.01607 0.01870 0.01990 0.02012
282.49806 0.01770 0.01913 0.01842 0.02033 0.02200 0.01979
282.50766 0.02100 0.01907 0.02221 0.02317 0.02221 0.01975
282.51724 0.02057 0.02106 0.02154 0.02106 0.01719 0.01939
282.52682 0.01505 0.01991 0.01433 0.01773 0.01967 0.01915
282.53641 0.01878 0.01609 0.01658 0.01951 0.01951 0.01901
282.54600 0.01878 0.02047 0.01541 0.01830 0.01854 0.01854
282.55558 0.02253 0.02061 0.01678 0.01942 0.02157 0.01834
282.56517 0.01841 0.01626 0.01626 0.01674 0.01770 0.01803
282.57472 0.01958 0.01576 0.01505 0.02054 0.01672 0.01772
282.58431 0.01506 0.01745 0.01626 0.01865 0.01674 0.01749
282.59390 0.01491 0.01852 0.01780 0.01564 0.01732 0.01732
282.60348 0.01803 0.01851 0.01539 0.01851 0.01563 0.01699
282.61307 0.01494 0.01542 0.01350 0.01374 0.01446 0.01689
282.62266 0.01557 0.01437 0.01389 0.01605 0.01341 0.01669
282.63221 0.01823 0.01941 0.01918 0.01918 0.02107 0.01634
282.64180 0.01753 0.01658 0.01729 0.01942 0.01800 0.01614
282.65138 0.01632 0.01797 0.02010 0.01774 0.01584 0.01595
282.66097 0.01421 0.01255 0.01421 0.01326 0.01232 0.01578
282.67056 0.02136 0.01878 0.01760 0.02089 0.02018 0.01551
282.68011 0.01624 0.01624 0.01718 0.01436 0.01600 0.01535
282.68969 0.01649 0.01719 0.01602 0.01908 0.01837 0.01512
282.69928 0.01602 0.01555 0.01625 0.01814 0.01673 0.01498
282.70887 0.01384 0.01384 0.01126 0.01571 0.01618 0.01475
282.71845 0.01691 0.01338 0.01268 0.01597 0.01456 0.01460
282.72801 0.01681 0.01539 0.01563 0.01539 0.01681 0.01447
282.73759 0.01645 0.01081 0.01339 0.01245 0.01621 0.01421
282.74718 0.01461 0.01720 0.01084 0.01296 0.01202 0.01411
282.75677 0.01250 0.01297 0.01321 0.01321 0.01557 0.01403
282.76632 0.01487 0.01793 0.01227 0.01605 0.01487 0.01382
282.77590 0.01488 0.01583 0.01512 0.01299 0.01370 0.01365
282.78550 0.01382 0.01429 0.01239 0.01358 0.01310 0.01358
282.79508 0.01334 0.01072 0.01239 0.01191 0.01072 0.01340
282.80464 0.01361 0.01266 0.01098 0.01266 0.01313 0.01327
282.81422 0.01183 0.01112 0.01514 0.01277 0.01064 0.01296
282.82381 0.01592 0.01735 0.01450 0.01854 0.01616 0.01290
282.83337 0.01218 0.01146 0.01099 0.01027 0.01099 0.01267
282.84295 0.01384 0.01193 0.01408 0.01694 0.01646 0.01247
282.85253 0.01542 0.01186 0.01234 0.01257 0.01139 0.01255
282.86209 0.01468 0.01042 0.01136 0.01326 0.01302 0.01238
282.87168 0.00922 0.00993 0.00922 0.01230 0.01159 0.01228
282.88126 0.01307 0.01022 0.01141 0.01117 0.01402 0.01217
282.89082 0.01328 0.01257 0.00996 0.01043 0.01209 0.01201
282.90040 0.00997 0.01163 0.00926 0.01116 0.01282 0.01191
282.90999 0.01381 0.01452 0.01333 0.01547 0.01500 0.01179
282.91955 0.01480 0.01027 0.01289 0.01528 0.01241 0.01170
282.92913 0.01406 0.01001 0.00930 0.01239 0.01287 0.01159
282.93871 0.01190 0.00880 0.01071 0.01094 0.01237 0.01148
282.94828 0.00837 0.00981 0.00909 0.01053 0.01148 0.01140
282.95786 0.01203 0.01179 0.00866 0.01179 0.00938 0.01133
282.96744 0.01197 0.01173 0.01269 0.01293 0.01245 0.01119
282.97700 0.01432 0.00955 0.00907 0.01193 0.01170 0.01108
282.98659 0.01093 0.01188 0.01260 0.01426 0.01283 0.01089
282.99618 0.01303 0.01232 0.01303 0.01232 0.01090 0.01077
283.00573 0.00831 0.00926 0.00713 0.00736 0.00713 0.01073
283.01531 0.01451 0.01451 0.01332 0.01380 0.01403 0.01061
283.02487 0.01370 0.01202 0.01226 0.01058 0.01250 0.01061
283.03446 0.01255 0.01135 0.01110 0.01424 0.01207 0.01050
283.04404 0.01409 0.01021 0.01264 0.01288 0.01361 0.01055
283.05360 0.01020 0.01287 0.01092 0.01262 0.00947 0.01042
283.06318 0.00697 0.00505 0.00866 0.01082 0.00842 0.01022
283.07274 0.00791 0.00719 0.00767 0.00743 0.01007 0.01016
283.08233 0.00836 0.00907 0.01051 0.01027 0.01003 0.01007
283.09188 0.01175 0.00575 0.00623 0.00647 0.00719 0.01001
283.10146 0.00697 0.00889 0.00889 0.00385 0.00793 0.00999
283.11103 0.00967 0.00508 0.00870 0.00967 0.01112 0.00987
283.12061 0.00988 0.01036 0.01061 0.01036 0.01422 0.00975
283.13019 0.00972 0.01117 0.00972 0.01190 0.01190 0.00973
283.13975 0.01229 0.01205 0.01157 0.00916 0.00940 0.00959
283.14933 0.00720 0.00504 0.00767 0.00720 0.00791 0.00948
283.15889 0.00596 0.00715 0.00810 0.00739 0.00763 0.00939
283.16848 0.01118 0.01094 0.00809 0.00975 0.00904 0.00929
283.17803 0.00887 0.01150 0.01126 0.00767 0.01270 0.00926
283.18762 0.00523 0.00761 0.00571 0.00713 0.00452 0.00910
283.19718 0.01388 0.00933 0.00886 0.01173 0.01316 0.00911
283.20676 0.00977 0.00834 0.00810 0.01000 0.01215 0.00903
283.21632 0.00620 0.00763 0.00477 0.00668 0.00620 0.00893
283.22590 0.00927 0.00689 0.00784 0.00736 0.00665 0.00881
283.23545 0.00711 0.00664 0.00877 0.01043 0.00996 0.00869
283.24505 0.00690 0.00714 0.00737 0.00714 0.00904 0.00872
283.25460 0.00931 0.00740 0.00644 0.01098 0.00668 0.00868
283.26415 0.01031 0.00767 0.00983 0.00983 0.00791 0.00866
283.27374 0.01105 0.00697 0.00889 0.00913 0.00865 0.00862
283.28330 0.00738 0.00619 0.00881 0.00667 0.00810 0.00850
283.29288 0.00859 0.00525 0.00549 0.00573 0.00692 0.00846
283.30244 0.00978 0.00882 0.00787 0.01192 0.00715 0.00836
283.31202 0.00684 0.00590 0.00448 0.00826 0.00590 0.00828
283.32157 0.00656 0.00633 0.00727 0.00656 0.00867 0.00820
283.33117 0.00961 0.01008 0.00680 0.00914 0.00750 0.00805
283.34072 0.01058 0.01034 0.00682 0.00635 0.00917 0.00808
283.35027 0.00897 0.00944 0.00779 0.00755 0.00873 0.00807
283.35986 0.00446 0.00493 0.00611 0.00540 0.00869 0.00795
283.36942 0.00800 0.00753 0.00494 0.00730 0.00635 0.00790
283.37901 0.00993 0.01087 0.01087 0.00945 0.01182 0.00787
283.38856 0.01239 0.00935 0.01169 0.01075 0.01075 0.00779
283.39811 0.00910 0.00583 0.00467 0.00700 0.00700 0.00775
283.40771 0.01218 0.00609 0.00773 0.00679 0.00656 0.00772
283.41726 0.00921 0.00543 0.00614 0.01180 0.00897 0.00769
283.42681 0.00709 0.00733 0.00567 0.00780 0.00733 0.00763
283.43640 0.00739 0.00762 0.00619 0.00715 0.00715 0.00770
283.44595 0.00331 0.00592 0.00663 0.00734 0.00379 0.00755
283.45551 0.00966 0.00731 0.00731 0.00683 0.01131 0.00744
283.46510 0.00541 0.00658 0.00588 0.00729 0.00682 0.00744
283.47465 0.00775 0.00564 0.00846 0.00775 0.00658 0.00740
283.48423 0.00759 0.00451 0.00332 0.00641 0.00759 0.00741
283.49379 0.00639 0.00710 0.00545 0.00521 0.00450 0.00731
283.50335 0.01041 0.00544 0.00662 0.00852 0.00804 0.00725
283.51290 0.00805 0.00687 0.00403 0.00663 0.00592 0.00726
283.52249 0.00922 0.00733 0.01016 0.01063 0.01063 0.00719
283.53204 0.00473 0.00568 0.00663 0.00805 0.00805 0.00714
283.54160 0.00707 0.00377 0.00400 0.00542 0.00306 0.00710
283.55119 0.00852 0.00734 0.00639 0.00923 0.00828 0.00708
283.56074 0.00618 0.00713 0.00760 0.00546 0.00523 0.00705
283.57030 0.00526 0.00526 0.00455 0.00742 0.00790 0.00705
283.57988 0.00595 0.00642 0.00642 0.00262 0.00523 0.00698
283.58944 0.00783 0.00997 0.00688 0.00688 0.00712 0.00692
283.59900 0.00473 0.00496 0.00544 0.00260 0.00709 0.00684
283.60855 0.00687 0.00592 0.00877 0.00711 0.00900 0.00683
283.61813 0.00988 0.00847 0.01270 0.00729 0.00776 0.00676
283.62769 0.00706 0.00588 0.00588 0.00682 0.00588 0.00674
283.63725 0.00750 0.00703 0.01032 0.00891 0.00797 0.00667
283.64680 0.00873 0.00732 0.00519 0.00755 0.00755 0.00673
283.65639 0.00871 0.00753 0.00282 0.00683 0.00424 0.00660
283.66594 0.00688 0.00688 0.00546 0.00830 0.00735 0.00666
283.67550 0.00358 0.00072 0.00048 0.00358 0.00526 0.00663
283.68506 0.00646 0.01053 0.00455 0.00813 0.00933 0.00658
283.69461 0.00648 0.00504 0.00600 0.00456 0.01008 0.00657
283.70419 0.01035 0.00843 0.00698 0.01060 0.00963 0.00654
283.71375 0.00651 0.00627 0.00531 0.00458 0.00434 0.00656
283.72331 0.00870 0.01111 0.00652 0.00966 0.00773 0.00651
283.73286 0.00696 0.00816 0.00672 0.00696 0.00696 0.00644
283.74242 0.00264 0.00432 0.00528 0.00504 0.00432 0.00644
283.75200 0.00842 0.00770 0.00722 0.00986 0.00577 0.00638
283.76156 0.00556 0.00194 0.00242 0.00581 0.00387 0.00634
283.77112 0.00555 0.00386 0.00338 0.00338 0.00386 0.00632
283.78067 0.00725 0.00435 0.00629 0.00725 0.00725 0.00631
283.79023 0.00578 0.00313 0.00530 0.00481 0.00602 0.00622
283.79978 0.00619 0.00572 0.00333 0.00643 0.00476 0.00616
283.80936 0.00705 0.00305 0.00752 0.00376 0.00564 0.00607
283.81893 0.00635 0.00400 0.00353 0.00188 0.00447 0.00603
283.82848 0.00896 0.00519 0.00637 0.00566 0.00731 0.00602
283.83803 0.00802 0.00637 0.00920 0.00873 0.00684 0.00604
283.84759 0.00449 0.00095 0.00331 0.00355 0.00449 0.00596
283.85714 0.00427 0.00569 0.00829 0.00521 0.00545 0.00595
283.86670 0.00848 0.00353 0.00683 0.00424 0.00825 0.00590
283.87626 0.00330 0.00401 0.00259 0.00377 0.00683 0.00589
283.88581 0.00801 0.00259 0.00377 0.00471 0.00424 0.00586
283.89539 0.00259 0.00612 0.00376 0.00212 0.00494 0.00582
283.90496 0.00782 0.00592 0.00450 0.00569 0.00569 0.00582
283.91451 0.00522 0.00498 0.00237 0.00545 0.00569 0.00583
283.92406 0.00668 0.00525 0.00429 0.00620 0.00334 0.00583
283.93362 0.00312 0.00384 0.00528 0.00576 0.00288 0.00583
283.94317 0.00548 0.00548 0.00763 0.00357 0.00786 0.00577
283.95274 0.00475 0.00688 0.00427 0.00285 0.00783 0.00573
283.96229 0.00564 0.00470 0.00870 0.00306 0.00917 0.00567
283.97184 0.00538 0.00609 0.00445 0.00421 0.00609 0.00556
283.98140 0.00470 0.00658 0.00752 0.00423 0.00822 0.00536
283.99095 0.00306 0.00682 0.00329 0.00494 0.00447 0.00559
284.00051 0.00331 0.00662 0.00236 0.00378 0.00520 0.00556
284.01007 0.00617 0.00285 0.00451 0.00451 0.00640 0.00555
284.01962 0.00540 0.00352 0.00376 0.00235 0.00446 0.00551
284.02917 0.00537 0.00677 0.00491 0.00794 0.00724 0.00546
284.03873 0.00650 0.00581 0.00627 0.00557 0.00232 0.00541
284.04829 0.00712 0.00620 0.00827 0.00528 0.00712 0.00536
284.05784 0.00463 0.00533 0.00463 0.00672 0.00510 0.00536
284.06740 0.00603 0.00139 0.00070 0.00023 0.00255 0.00533
284.07695 0.00301 0.00162 0.00348 0.00464 0.00510 0.00528
284.08650 0.00883 0.01023 0.00744 0.00976 0.00976 0.00520
284.09607 0.00603 0.00557 0.00742 0.00673 0.00719 0.00518
284.10562 0.00581 0.00604 0.00186 0.00720 0.00534 0.00519
284.11518 0.00392 0.00554 0.00231 0.00600 0.00323 0.00516
284.12473 0.00555 0.00810 0.00787 0.00787 0.00671 0.00520
284.13428 0.00788 0.00696 0.00835 0.00927 0.00835 0.00512
284.14385 0.00582 0.00931 0.00395 0.00651 0.00744 0.00517
284.15340 0.00304 0.00304 0.00421 0.00538 0.00585 0.00521
284.16295 0.00327 0.00281 0.00444 0.00421 0.00281 0.00515
284.17251 0.00608 0.00327 0.00398 0.00444 0.00678 0.00515
284.18206 0.00633 0.00587 0.00422 0.00493 0.00704 0.00513
284.19162 0.00378 0.00283 0.00094 0.00189 0.00213 0.00512
284.20118 0.00517 0.00682 0.00353 0.00400 0.00564 0.00509
284.21073 0.00425 0.00330 0.00755 0.00614 0.00165 0.00512
284.22025 0.00470 0.00517 0.00141 0.00399 0.00493 0.00507
284.22981 0.00400 0.00824 0.00353 0.00518 0.00400 0.00507
284.23936 0.00702 0.00561 0.00491 0.00140 0.00515 0.00501
284.24892 0.00492 0.00328 0.00398 0.00585 0.00421 0.00504
284.25848 0.00395 0.00604 0.00325 0.00674 0.00348 0.00496
284.26803 0.00692 0.00554 0.00484 0.00508 0.00554 0.00491
284.27758 0.00626 0.00603 0.00371 0.00441 0.00765 0.00495
284.28714 0.00093 0.00325 0.00139 0.00023 0.00302 0.00492
284.29670 0.00741 0.00879 0.00532 0.00602 0.00579 0.00488
284.30623 0.00883 0.00581 0.00906 0.00767 0.00697 0.00488
284.31578 0.00725 0.00725 0.00749 0.00515 0.00702 0.00490
284.32533 0.00259 0.00282 0.00141 0.00282 0.00118 0.00486
284.33489 0.00354 0.00495 0.00283 0.00401 0.00401 0.00486
284.34445 0.00450 0.00095 0.00568 0.00710 0.00474 0.00487
284.35400 0.00689 0.00547 0.00665 0.00475 0.00523 0.00484
284.36353 0.00619 0.00571 0.00880 0.00571 0.00928 0.00485
284.37308 0.00454 0.00622 0.00287 0.00478 0.00574 0.00486
284.38263 0.00451 0.00475 0.00356 0.00784 0.00427 0.00480
284.39220 0.00691 0.00596 0.00763 0.00787 0.00453 0.00484
284.40175 0.00493 0.00352 0.00329 0.00235 0.00540 0.00473
284.41127 0.00332 0.00380 0.00498 0.00119 0.00142 0.00478
284.42083 0.00354 0.00472 0.00307 0.00236 0.00566 0.00472
284.43038 0.00307 0.00260 0.00639 0.00402 0.00260 0.00475
284.43994 0.00474 0.00142 0.00166 0.00189 0.00095 0.00471
284.44950 0.00448 0.00495 0.00212 0.00400 0.00259 0.00466
284.45902 0.00700 0.00163 0.00373 0.00280 0.00023 0.00461
284.46857 0.00953 0.00604 0.00581 0.00442 0.00721 0.00458
284.47813 0.00554 0.00624 0.00346 0.00393 0.00462 0.00455
284.48768 0.00767 0.00767 0.00581 0.00627 0.00651 0.00457
284.49722 0.00581 0.00581 0.00604 0.00395 0.00744 0.00458
284.50677 0.00070 0.00000 0.00209 0.00232 0.00302 0.00451
284.51632 0.00557 0.00000 0.00325 0.00464 0.00487 0.00450
284.52588 0.00303 0.00606 0.00140 0.00326 0.00396 0.00450
284.53540 0.00302 0.00255 0.00325 0.00325 0.00418 0.00448
284.54496 0.00325 0.00487 0.00395 0.00464 0.00279 0.00446
284.55452 0.00467 0.00584 0.00654 0.00724 0.00677 0.00447
284.56404 0.00186 0.00163 0.00466 0.00000 0.00256 0.00445
284.57359 -0.00071 0.00541 0.00329 0.00259 0.00188 0.00446
284.58315 0.00355 0.00450 0.00284 0.00544 0.00284 0.00450
284.59267 0.00826 0.00778 0.00330 0.00755 0.00637 0.00443
284.60223 0.00422 0.00352 0.00493 0.00188 0.00305 0.00441
284.61179 0.00370 0.00602 0.00648 0.00255 0.00463 0.00437
284.62131 0.00736 0.00736 0.00598 0.00437 0.00805 0.00428
284.63086 0.00368 0.00368 0.00506 0.00345 0.00437 0.00431
284.64042 0.00486 0.00324 0.00347 0.00672 0.00672 0.00431
284.64995 0.00116 0.00093 0.00139 -0.00070 0.00046 0.00429
284.65951 0.00371 0.00371 0.00070 0.00371 0.00440 0.00430
284.66906 0.00693 0.00578 0.00485 0.00670 0.00531 0.00426
284.67858 0.00207 0.00161 0.00276 0.00367 0.00161 0.00416
284.68814 0.00250 0.00273 0.00250 0.00114 0.00318 0.00417
284.69770 0.00570 0.00410 0.00433 0.00524 0.00570 0.00418
284.70722 0.00227 -0.00023 0.00000 0.00227 -0.00114 0.00416
284.71678 0.00409 0.00273 0.00159 0.00182 0.00273 0.00418
284.72630 0.00114 0.00023 -0.00023 0.00160 0.00114 0.00417
284.73585 0.00478 0.00501 0.00478 0.00592 0.00523 0.00415
284.74541 0.00593 0.00410 0.00479 0.00843 0.00570 0.00411
284.75494 0.00453 0.00363 0.00113 0.00612 0.00295 0.00409
284.76449 0.00317 0.00475 0.00340 0.00181 0.00430 0.00407
284.77402 0.00478 0.00159 0.00205 0.00045 0.00227 0.00408
284.78357 0.00500 0.00500 0.00454 0.00273 0.00386 0.00406
284.79312 0.00046 0.00754 0.00297 0.00457 0.00503 0.00404
284.80265 0.00343 0.00206 0.00389 0.00389 0.00320 0.00407
284.81221 0.00296 0.00478 0.00342 0.00228 0.00342 0.00405
284.82173 0.00618 0.00504 0.00572 0.00481 0.00847 0.00405
284.83129 0.00230 -0.00046 0.00069 -0.00069 0.00115 0.00405
284.84081 0.00255 0.00116 0.00116 0.00046 0.00324 0.00406
284.85037 0.00531 0.00600 0.00369 0.00646 0.00692 0.00404
284.85990 0.00393 0.00694 0.00416 0.00278 0.00601 0.00405
284.86945 0.00161 0.00554 0.00346 0.00623 0.00531 0.00404
284.87898 0.00366 0.00640 0.00434 0.00480 0.00663 0.00397
284.88853 0.00344 0.00298 0.00206 -0.00092 0.00344 0.00397
284.89805 0.00228 0.00434 0.00137 0.00434 0.00570 0.00394
284.90761 0.00499 0.00272 0.00159 0.00317 0.00658 0.00390
284.91714 0.00632 0.00564 0.00474 0.00745 0.00429 0.00391
284.92669 0.00316 0.00655 0.00271 0.00362 0.00565 0.00388
284.93622 0.00588 0.00520 0.00362 0.00498 0.00724 0.00388
284.94577 0.00294 0.00362 0.00362 0.00384 0.00249 0.00386
284.95529 0.00793 0.00657 0.00793 0.00725 0.00408 0.00387
284.96485 0.00159 0.00159 0.00249 0.00204 0.00045 0.00388
284.97438 -0.00023 0.00023 0.00182 0.00159 0.00522 0.00390
284.98393 0.00296 0.00296 0.00319 0.00410 0.00502 0.00390
284.99346 0.00702 0.00385 0.00521 0.00294 0.00430 0.00381
285.00301 0.00593 0.00365 0.00365 0.00205 0.00251 0.00384
285.01254 0.00479 0.00434 0.00274 0.00365 0.00548 0.00381
285.02210 0.00412 0.00320 0.00274 0.00617 0.00686 0.00381
285.03162 0.00431 0.00681 0.00113 0.00545 0.00613 0.00379
285.04115 0.00388 0.00434 0.00502 0.00525 0.00525 0.00379
285.05070 0.00184 0.00184 0.00161 0.00483 0.00161 0.00383
285.06022 0.00441 0.00372 0.00581 0.00418 0.00627 0.00385
285.06978 0.00717 0.00463 0.00417 0.00810 0.00463 0.00383
285.07931 0.00488 0.00627 0.00836 0.00697 0.00674 0.00383
285.08883 0.00512 0.00303 0.00396 0.00280 0.00373 0.00383
285.09839 0.00394 0.00116 0.00464 0.00139 0.00417 0.00379
285.10791 0.00419 0.00326 0.00279 0.00605 0.00582 0.00380
285.11746 0.00490 0.00256 0.00490 0.00280 0.00443 0.00376
285.12699 0.00233 0.00140 0.00490 0.00397 0.00047 0.00379
285.13651 0.00329 0.00611 0.00047 0.00282 0.00094 0.00379
285.14607 0.00514 0.00701 0.00607 0.00631 0.00374 0.00375
285.15560 0.00393 0.00439 0.00393 0.00508 0.00601 0.00374
285.16512 0.00255 0.00486 0.00255 0.00532 0.00463 0.00374
285.17468 0.00323 0.00046 0.00438 0.00576 0.00438 0.00369
285.18420 0.00185 0.00324 0.00440 0.00510 0.00209 0.00371
285.19372 -0.00139 -0.00069 0.00116 0.00255 0.00255 0.00370
285.20329 0.00535 0.00116 0.00303 0.00489 0.00233 0.00370
285.21281 0.00232 0.00441 0.00046 0.00209 0.00394 0.00369
285.22233 0.00232 0.00162 0.00139 0.00185 0.00185 0.00366
285.23189 0.00230 -0.00023 0.00069 0.00046 -0.00046 0.00363
285.24141 0.00459 0.00138 0.00160 0.00390 0.00046 0.00361
285.25093 0.00253 0.00253 0.00230 0.00161 0.00092 0.00360
285.26050 0.00572 0.00435 0.00366 0.00526 0.00526 0.00358
285.27002 0.00114 0.00045 0.00068 0.00295 -0.00023 0.00352
285.27954 0.00227 0.00318 0.00250 0.00387 0.00432 0.00351
285.28907 0.00663 0.00641 0.00435 0.00595 0.00343 0.00351
285.29862 0.00388 0.00160 0.00457 0.00411 0.00320 0.00351
285.30814 0.00434 0.00594 0.00114 0.00023 -0.00046 0.00349
285.31768 0.00437 0.00667 0.00437 0.00069 0.00644 0.00349
285.32723 0.00252 0.00412 0.00229 0.00229 0.00206 0.00346
285.33675 0.00554 -0.00139 0.00162 0.00092 0.00115 0.00349
285.34628 0.00046 0.00114 0.00114 0.00205 0.00137 0.00346
285.35580 0.00344 0.00321 0.00620 0.00138 0.00711 0.00344
285.36533 0.00664 0.00481 0.00183 0.00458 0.00618 0.00344
285.37489 0.00551 0.00276 0.00253 0.00620 0.00367 0.00341
285.38441 0.00508 0.00739 0.00369 0.00554 0.00554 0.00342
285.39394 0.00668 0.00437 0.00368 0.00368 0.00645 0.00340
285.40346 0.00576 0.00668 0.00714 0.00714 0.00668 0.00339
285.41301 0.00461 0.00438 0.00161 0.00208 0.00208 0.00339
285.42254 0.00299 0.00345 0.00207 0.00046 0.00161 0.00333
285.43207 0.00207 0.00322 0.00414 0.00345 0.00276 0.00333
285.44159 0.00368 0.00368 0.00437 0.00460 0.00575 0.00331
285.45112 0.00548 0.00388 0.00548 0.00434 0.00525 0.00320
285.46064 0.00387 0.00341 0.00364 0.00523 0.00000 0.00325
285.47019 -0.00046 0.00114 0.00000 0.00091 -0.00160 0.00326
285.47972 0.00182 0.00319 0.00387 0.00273 0.00387 0.00326
285.48925 0.00455 0.00455 0.00341 0.00273 0.00455 0.00321
285.49877 0.00297 0.00229 0.00343 0.00343 0.00206 0.00324
285.50830 0.00438 -0.00046 0.00069 0.00230 0.00300 0.00320
285.51782 0.00643 0.00023 0.00299 0.00276 0.00436 0.00319
285.52738 0.00253 0.00276 0.00046 0.00368 0.00368 0.00320
285.53690 0.00160 0.00251 -0.00023 0.00205 -0.00114 0.00315
285.54642 0.00184 0.00459 0.00252 0.00023 0.00161 0.00319
285.55596 0.00414 0.00345 0.00161 0.00368 0.00437 0.00318
285.56548 0.00323 0.00461 0.00369 0.00392 0.00230 0.00320
285.57500 0.00000 0.00206 0.00206 0.00183 -0.00069 0.00315
285.58453 0.00432 0.00478 0.00387 0.00455 0.00523 0.00318
285.59405 0.00182 0.00114 0.00182 0.00273 0.00182 0.00317
285.60357 0.00272 0.00408 0.00362 0.00408 0.00159 0.00307
285.61314 0.00318 0.00091 0.00159 0.00295 0.00182 0.00309
285.62266 0.00206 0.00046 0.00183 0.00252 0.00275 0.00308
285.63218 0.00574 0.00505 0.00322 0.00207 0.00482 0.00310
285.64171 0.00577 0.00277 0.00415 0.00254 0.00208 0.00317
285.65123 0.00530 0.00253 0.00415 0.00276 0.00438 0.00310
285.66075 0.00552 0.00184 0.00322 0.00414 0.00644 0.00310
285.67028 0.00434 0.00434 0.00320 0.00525 0.00297 0.00301
285.67981 0.00046 0.00138 0.00574 0.00161 0.00505 0.00311
285.68934 0.00388 0.00594 0.00388 0.00365 0.00548 0.00299
285.69886 0.00253 0.00184 0.00230 0.00023 0.00115 0.00299
285.70838 0.00230 0.00392 0.00023 0.00230 0.00277 0.00318
285.71791 0.00322 0.00276 0.00184 0.00437 0.00622 0.00301
285.72743 0.00231 0.00185 0.00346 0.00231 0.00462 0.00298
285.73695 0.00575 0.00506 0.00529 0.00391 0.00322 0.00294
285.74649 0.00068 0.00000 -0.00205 0.00068 0.00434 0.00292
285.75601 0.00545 0.00613 0.00363 0.00136 0.00658 0.00289
285.76553 0.00432 0.00409 0.00386 0.00454 0.00273 0.00290
285.77506 0.00181 0.00045 0.00339 0.00271 0.00181 0.00283
285.78458 0.00502 0.00502 0.00639 0.00320 0.00457 0.00288
285.79410 0.00728 0.00546 0.00750 0.00387 0.00705 0.00286
285.80364 0.00227 0.00386 0.00227 0.00204 0.00295 0.00287
285.81316 0.00339 0.00271 0.00429 0.00248 0.00407 0.00281
285.82268 0.00361 0.00181 0.00384 0.00248 0.00384 0.00282
285.83221 0.00676 0.00586 0.00653 0.00811 0.00698 0.00282
285.84173 0.00158 0.00384 0.00181 0.00045 0.00610 0.00280
285.85125 0.00342 0.00251 0.00274 0.00319 0.00388 0.00282
285.86078 0.00501 0.00228 0.00137 0.00319 0.00410 0.00284
285.87031 -0.00068 0.00068 0.00182 0.00000 0.00363 0.00281
285.87984 0.00000 0.00249 0.00226 0.00385 0.00408 0.00281
285.88936 0.00226 0.00294 0.00204 0.00181 0.00339 0.00277
285.89885 0.00428 0.00248 0.00270 0.00248 0.00068 0.00276
285.90838 0.00221 0.00044 -0.00088 0.00000 0.00155 0.00270
285.91790 0.00333 0.00555 0.00289 0.00444 0.00089 0.00270
285.92742 0.00242 0.00066 0.00264 0.00506 -0.00044 0.00266
285.93696 0.00022 0.00134 0.00111 0.00245 0.00378 0.00268
285.94648 -0.00067 0.00067 0.00223 -0.00067 0.00111 0.00271
285.95600 -0.00111 0.00178 0.00201 0.00111 -0.00045 0.00268
285.96553 0.00378 0.00200 0.00178 0.00356 0.00178 0.00278
285.97505 0.00400 0.00200 0.00133 0.00222 0.00178 0.00272
285.98454 0.00440 0.00396 0.00374 0.00352 0.00242 0.00264
285.99407 -0.00044 0.00088 0.00462 0.00374 0.00330 0.00263
286.00360 -0.00022 0.00419 0.00375 0.00022 0.00309 0.00261
286.01312 0.00355 0.00622 0.00488 0.00311 0.00577 0.00258
286.02265 0.00067 0.00044 0.00111 0.00089 0.00156 0.00262
286.03217 0.00266 0.00466 0.00488 0.00421 0.00155 0.00260
286.04167 0.00022 0.00089 0.00133 0.00044 -0.00089 0.00260
286.05119 0.00111 -0.00022 0.00199 0.00066 0.00155 0.00258
286.06071 0.00022 0.00154 0.00198 0.00351 0.00264 0.00255
286.07025 0.00637 0.00439 0.00198 0.00374 0.00154 0.00257
286.07977 0.00399 0.00443 0.00199 0.00310 0.00288 0.00268
286.08929 0.00443 0.00376 0.00332 0.00420 0.00354 0.00254
286.09879 0.00379 0.00423 0.00379 0.00357 0.00201 0.00256
286.10831 -0.00223 0.00022 -0.00045 0.00134 0.00067 0.00257
286.11783 0.00200 0.00089 -0.00067 0.00089 0.00222 0.00255
286.12736 0.00111 0.00067 0.00312 0.00379 0.00379 0.00254
286.13685 0.00731 0.00133 -0.00044 0.00089 0.00133 0.00248
286.14638 0.00200 0.00223 0.00156 0.00312 0.00378 0.00247
286.15591 0.00133 0.00334 0.00311 0.00311 0.00289 0.00251
286.16543 0.00292 -0.00022 0.00180 0.00225 0.00202 0.00253
286.17492 0.00179 0.00246 0.00112 -0.00156 0.00156 0.00254
286.18445 0.00045 0.00245 0.00267 0.00356 0.00134 0.00249
286.19397 0.00443 0.00266 0.00532 0.00199 0.00465 0.00248
286.20350 0.00155 0.00309 0.00066 0.00066 0.00088 0.00246
286.21300 0.00287 0.00000 0.00265 0.00265 0.00375 0.00245
286.22252 0.00483 0.00307 0.00329 0.00548 0.00219 0.00240
286.23205 0.00221 0.00354 0.00044 0.00398 0.00221 0.00241
286.24157 0.00176 0.00351 0.00198 0.00286 0.00286 0.00237
286.25106 0.00444 0.00422 0.00333 0.00444 0.00333 0.00235
286.26059 -0.00200 -0.00045 -0.00022 0.00045 -0.00245 0.00241
286.27011 -0.00291 0.00067 0.00000 -0.00156 -0.00179 0.00243
286.27960 0.00112 0.00290 0.00134 -0.00045 0.00134 0.00241
286.28914 0.00606 0.00269 0.00314 0.00135 0.00449 0.00246
286.29866 0.00067 0.00022 -0.00090 -0.00090 0.00179 0.00241
286.30815 0.00314 0.00224 0.00202 0.00179 0.00359 0.00242
286.31768 0.00404 0.00337 0.00382 0.00517 0.00539 0.00240
286.32720 0.00509 0.00354 0.00111 0.00221 0.00442 0.00237
286.33669 0.00245 0.00290 0.00423 0.00201 0.00312 0.00236
286.34622 0.00335 0.00201 0.00022 0.00268 0.00179 0.00240
286.35575 -0.00089 0.00178 -0.00089 -0.00045 0.00178 0.00235
286.36525 0.00178 0.00267 0.00178 0.00022 0.00534 0.00237
286.37477 0.00156 0.00111 0.00290 0.00334 0.00423 0.00215
286.38426 0.00265 0.00177 0.00044 0.00022 0.00375 0.00232
286.39379 0.00507 0.00418 0.00286 0.00462 0.00617 0.00230
286.40331 0.00131 0.00109 0.00480 0.00044 0.00087 0.00226
286.41280 0.00130 0.00130 0.00174 0.00325 0.00325 0.00220
286.42233 0.00676 0.00545 0.00632 0.00349 0.00349 0.00228
286.43183 0.00044 0.00044 0.00349 0.00371 0.00371 0.00226
286.44135 0.00260 0.00130 0.00043 0.00195 0.00108 0.00224
286.45088 0.00131 0.00262 -0.00131 0.00306 0.00327 0.00221
286.46037 0.00566 0.00261 0.00545 0.00240 0.00675 0.00223
286.46989 0.00261 0.00261 0.00370 0.00414 0.00392 0.00223
286.47939 -0.00109 0.00131 0.00065 0.00065 0.00283 0.00223
286.48891 -0.00175 0.00567 0.00131 0.00545 0.00393 0.00226
286.49840 0.00196 0.00283 0.00044 0.00239 0.00348 0.00220
286.50794 0.00529 0.00397 0.00375 0.00331 0.00463 0.00224
286.51746 0.00396 0.00418 0.00198 0.00242 0.00286 0.00224
286.52696 0.00461 0.00308 0.00308 0.00220 0.00330 0.00235
286.53648 0.00265 0.00309 0.00243 0.00309 0.00177 0.00222
286.54597 0.00262 0.00787 0.00219 0.00459 0.00525 0.00219
286.55550 0.00305 0.00370 0.00261 0.00457 0.00240 0.00219
286.56499 0.00369 0.00217 -0.00087 0.00390 0.00130 0.00217
286.57451 0.00261 0.00478 0.00217 0.00217 0.00500 0.00216
286.58402 0.00000 -0.00022 -0.00239 0.00022 -0.00130 0.00214
286.59354 0.00348 0.00174 -0.00131 0.00065 0.00196 0.00215
286.60303 0.00174 -0.00043 -0.00304 -0.00239 -0.00087 0.00216
286.61256 0.00365 0.00344 0.00193 0.00387 0.00322 0.00215
286.62205 0.00625 0.00259 0.00366 0.00345 0.00216 0.00211
286.63157 0.00214 0.00043 0.00192 0.00192 -0.00171 0.00210
286.64107 0.00085 0.00235 -0.00085 0.00192 0.00491 0.00208
286.65059 0.00684 0.00278 0.00192 0.00535 0.00214 0.00209
286.66009 0.00342 0.00363 0.00321 0.00150 0.00406 0.00207
286.66959 0.00343 0.00515 0.00150 0.00279 0.00172 0.00210
286.67911 0.00064 0.00299 0.00064 0.00192 0.00085 0.00207
286.68861 0.00043 0.00172 0.00086 0.00000 -0.00129 0.00213
286.69813 0.00129 0.00129 0.00172 0.00387 0.00408 0.00204
286.70762 0.00602 0.00151 0.00086 0.00237 0.00323 0.00204
286.71715 0.00150 0.00278 0.00171 0.00278 0.00171 0.00202
286.72664 0.00215 0.00366 0.00194 0.00258 0.00151 0.00203
286.73613 0.00022 0.00453 0.00216 0.00345 0.00108 0.00204
286.74567 0.00236 0.00064 -0.00021 0.00129 0.00172 0.00203
286.75516 0.00151 0.00367 0.00151 -0.00281 0.00022 0.00203
286.76468 0.00408 0.00086 0.00279 0.00365 0.00580 0.00200
286.77418 0.00217 0.00043 0.00087 0.00065 -0.00022 0.00199
286.78367 0.00304 0.00391 0.00478 0.00434 0.00347 0.00197
286.79319 0.00500 0.00261 0.00217 0.00283 0.00370 0.00200
286.80269 0.00000 0.00174 0.00130 0.00065 0.00000 0.00203
286.81221 0.00174 0.00109 0.00044 0.00087 0.00349 0.00202
286.82171 0.00346 0.00476 0.00520 0.00411 0.00520 0.00201
286.83121 0.00174 -0.00022 0.00152 0.00195 -0.00043 0.00200
286.84073 -0.00022 0.00108 -0.00129 0.00108 0.00108 0.00202
286.85023 0.00408 0.00193 0.00494 0.00494 0.00580 0.00201
286.85972 0.00150 0.00171 0.00300 0.00300 0.00086 0.00199
286.86924 0.00085 0.00149 0.00171 0.00278 0.00192 0.00197
286.87874 0.00128 -0.00043 0.00086 0.00086 -0.00193 0.00197
286.88823 0.00237 0.00259 0.00194 0.00410 0.00108 0.00198
286.89775 0.00171 0.00364 0.00150 0.00193 0.00300 0.00194
286.90726 0.00108 0.00065 0.00108 -0.00065 0.00325 0.00196
286.91675 0.00386 0.00193 0.00086 0.00215 0.00129 0.00192
286.92624 0.00130 0.00368 0.00238 0.00130 0.00519 0.00194
286.93577 0.00043 0.00259 -0.00022 0.00366 0.00259 0.00193
286.94526 -0.00238 0.00043 -0.00303 0.00173 -0.00065 0.00194
286.95475 0.00152 -0.00022 0.00130 0.00325 0.00130 0.00192
286.96428 0.00022 0.00174 0.00196 0.00131 0.00174 0.00192
286.97377 0.00174 -0.00130 0.00000 -0.00195 -0.00043 0.00193
286.98326 0.00196 0.00152 0.00152 0.00261 0.00065 0.00192
286.99277 0.00394 0.00153 0.00153 0.00153 0.00131 0.00181
287.00229 0.00131 0.00131 0.00196 -0.00196 -0.00044 0.00179
287.01179 0.00220 0.00088 -0.00132 -0.00132 0.00132 0.00193
287.02128 0.00374 -0.00154 0.00066 0.00000 -0.00110 0.00191
287.03077 0.00287 0.00199 0.00221 0.00221 0.00243 0.00188
287.04030 0.00110 0.00066 0.00439 0.00286 0.00176 0.00189
287.04979 0.00130 0.00261 -0.00043 0.00239 0.00043 0.00188
287.05928 0.00022 0.00263 0.00175 0.00241 0.00372 0.00189
287.06878 0.00239 0.00152 0.00065 0.00543 0.00152 0.00187
287.07828 0.00590 0.00568 0.00306 0.00459 0.00481 0.00190
287.08780 0.00501 0.00196 0.00065 0.00458 0.00349 0.00187
287.09730 -0.00108 -0.00108 -0.00087 0.00022 0.00000 0.00184
287.10679 0.00505 0.00351 0.00264 0.00285 0.00220 0.00183
287.11628 0.00394 0.00197 0.00503 0.00656 0.00241 0.00185
287.12578 0.00285 0.00044 0.00000 0.00044 0.00307 0.00184
287.13530 -0.00044 -0.00240 -0.00240 -0.00109 -0.00022 0.00183
287.14479 0.00154 0.00462 0.00044 0.00132 0.00176 0.00186
287.15429 -0.00022 -0.00352 -0.00286 -0.00022 0.00000 0.00183
287.16378 -0.00111 0.00089 0.00022 0.00000 -0.00288 0.00186
287.17329 0.00264 -0.00088 0.00264 0.00286 0.00507 0.00184
287.18278 0.00288 0.00177 0.00000 0.00244 0.00620 0.00183
287.19227 0.00242 0.00220 0.00352 0.00308 0.00286 0.00182
287.20180 0.00261 0.00283 0.00152 0.00305 0.00326 0.00179
287.21129 0.00043 0.00043 0.00304 0.00022 0.00000 0.00179
287.22078 0.00326 0.00131 0.00065 -0.00131 0.00152 0.00179
287.23028 0.00109 0.00131 0.00458 0.00480 0.00610 0.00179
287.23977 0.00263 0.00198 0.00000 0.00373 0.00263 0.00180
287.24926 -0.00175 -0.00109 -0.00349 -0.00087 0.00109 0.00179
287.25876 0.00219 0.00437 0.00459 0.00437 0.00394 0.00179
287.26826 0.00521 0.00412 0.00260 0.00412 0.00456 0.00178
287.27775 -0.00238 -0.00130 -0.00087 -0.00108 -0.00173 0.00174
287.28725 0.00107 0.00150 0.00021 -0.00021 0.00043 0.00173
287.29674 0.00497 0.00259 0.00346 0.00130 0.00281 0.00176
287.30627 -0.00022 0.00151 0.00022 0.00000 0.00022 0.00173
287.31576 0.00304 0.00217 0.00065 0.00174 -0.00043 0.00176
287.32525 0.00366 0.00215 -0.00065 0.00237 0.00237 0.00172
287.33475 0.00452 0.00215 0.00215 0.00280 0.00108 0.00173
287.34424 0.00344 0.00107 0.00193 0.00215 0.00193 0.00174
287.35374 0.00194 0.00065 0.00194 0.00431 0.00280 0.00173
287.36324 0.00194 0.00172 0.00366 0.00151 0.00561 0.00173
287.37273 0.00476 0.00151 0.00260 0.00087 0.00260 0.00171
287.38222 0.00434 0.00564 0.00304 0.00282 0.00282 0.00175
287.39172 0.00194 0.00258 -0.00129 0.00065 0.00043 0.00173
287.40121 0.00367 0.00086 0.00216 0.00324 0.00216 0.00170
287.41070 -0.00022 0.00065 0.00087 0.00087 0.00348 0.00170
287.42020 0.00131 0.00131 0.00022 -0.00044 0.00175 0.00169
287.42969 0.00065 0.00109 0.00131 0.00283 0.00283 0.00165
287.43918 0.00241 0.00110 0.00263 0.00154 0.00241 0.00168
287.44868 0.00218 0.00153 0.00065 0.00262 0.00327 0.00168
287.45818 0.00260 0.00065 0.00173 0.00108 0.00282 0.00167
287.46768 0.00239 0.00347 0.00326 0.00521 0.00369 0.00166
287.47717 0.00043 0.00022 0.00065 0.00108 0.00022 0.00166
287.48666 -0.00065 0.00194 -0.00022 0.00065 -0.00065 0.00166
287.49616 -0.00086 0.00193 0.00172 0.00193 -0.00086 0.00166
287.50565 0.00346 0.00260 0.00325 0.00346 0.00368 0.00204
287.51511 0.00409 0.00237 0.00323 0.00280 0.00496 0.00167
287.52461 0.00151 -0.00022 0.00022 0.00086 0.00130 0.00165
287.53410 0.00150 -0.00021 0.00300 0.00043 0.00129 0.00160
287.54359 0.00236 0.00000 0.00043 0.00150 0.00150 0.00162
287.55309 0.00000 -0.00085 0.00192 0.00107 0.00064 0.00161
287.56259 0.00150 0.00021 -0.00064 0.00086 0.00064 0.00160
287.57208 0.00257 0.00193 0.00257 0.00150 0.00193 0.00161
287.58158 0.00193 0.00193 0.00129 0.00408 0.00236 0.00172
287.59107 0.00367 0.00065 0.00324 0.00216 0.00216 0.00163
287.60056 0.00365 0.00537 0.00300 0.00558 0.00343 0.00158
287.61006 0.00086 0.00000 -0.00108 0.00108 0.00022 0.00160
287.61952 0.00302 0.00086 0.00129 0.00151 0.00065 0.00159
287.62902 0.00172 0.00022 0.00129 0.00065 -0.00022 0.00160
287.63851 0.00151 0.00237 0.00431 0.00043 0.00410 0.00158
287.64800 0.00131 0.00218 0.00000 -0.00087 0.00305 0.00159
287.65751 0.00000 0.00152 0.00152 0.00044 0.00131 0.00159
287.66700 0.00087 0.00022 0.00065 0.00000 -0.00044 0.00159
287.67646 0.00481 0.00415 0.00219 0.00437 0.00284 0.00161
287.68596 0.00327 -0.00044 0.00284 0.00196 0.00000 0.00157
287.69545 0.00308 0.00044 0.00220 -0.00044 0.00088 0.00160
287.70494 0.00022 0.00109 0.00283 0.00152 -0.00044 0.00157
287.71444 -0.00066 0.00066 -0.00066 -0.00132 0.00153 0.00158
287.72393 -0.00022 0.00131 0.00066 -0.00219 0.00066 0.00157
287.73339 0.00414 0.00174 0.00174 0.00567 0.00131 0.00158
287.74289 0.00174 0.00022 -0.00022 -0.00217 0.00130 0.00159
287.75238 -0.00130 -0.00022 -0.00238 -0.00043 -0.00108 0.00163
287.76187 0.00304 0.00239 0.00391 0.00347 0.00521 0.00177
287.77138 -0.00108 -0.00022 0.00108 -0.00325 -0.00022 0.00152
287.78084 0.00262 0.00415 0.00196 0.00524 0.00415 0.00156
287.79034 0.00284 0.00349 0.00305 0.00436 0.00153 0.00161
287.79983 0.00349 0.00262 -0.00044 0.00131 -0.00153 0.00153
287.80932 0.00349 0.00066 0.00218 0.00240 -0.00022 0.00152
287.81879 -0.00022 -0.00152 0.00043 -0.00130 -0.00087 0.00152
287.82828 0.00000 0.00215 0.00151 0.00129 0.00129 0.00150
287.83777 0.00217 0.00326 0.00217 0.00239 0.00261 0.00152
287.84727 -0.00367 -0.00043 -0.00194 0.00129 0.00173 0.00150
287.85673 0.00064 0.00043 -0.00021 -0.00150 0.00300 0.00150
287.86622 0.00129 0.00343 -0.00086 -0.00021 0.00129 0.00146
287.87572 0.00107 -0.00043 0.00064 0.00193 0.00236 0.00139
287.88519 0.00172 0.00365 0.00236 0.00408 0.00150 0.00149
287.89468 0.00429 0.00214 0.00343 0.00322 0.00257 0.00150
287.90418 0.00194 0.00324 0.00324 0.00238 0.00346 0.00149
287.91367 0.00236 0.00301 0.00129 0.00107 0.00258 0.00145
287.92314 0.00193 0.00257 -0.00043 0.00129 0.00043 0.00146
287.93263 0.00575 0.00256 0.00426 0.00234 0.00426 0.00151
287.94212 0.00214 0.00107 0.00064 -0.00129 0.00450 0.00153
287.95159 0.00043 0.00149 0.00000 0.00298 0.00085 0.00154
287.96108 -0.00043 0.00237 -0.00065 0.00172 0.00151 0.00149
287.97057 0.00086 0.00235 -0.00192 0.00000 0.00214 0.00145
287.98004 0.00021 -0.00193 0.00171 -0.00107 -0.00021 0.00149
287.98953 0.00300 0.00021 0.00064 0.00086 0.00107 0.00153
287.99899 0.00107 0.00257 0.00214 -0.00086 -0.00086 0.00142
288.00850 0.00299 0.00021 -0.00043 0.00021 0.00171 0.00142
288.01799 -0.00128 0.00235 0.00321 0.00278 0.00235 0.00143
288.02745 0.00385 0.00278 0.00000 0.00406 0.00492 0.00141
288.03695 -0.00086 0.00301 -0.00129 -0.00129 0.00129 0.00143
288.04644 0.00085 0.00192 0.00149 0.00000 0.00213 0.00143
288.05590 0.00448 0.00149 0.00427 0.00341 0.00341 0.00144
288.06540 0.00428 -0.00043 0.00300 0.00257 0.00128 0.00154
288.07486 0.00214 0.00192 0.00427 0.00385 0.00192 0.00148
288.08436 0.00300 0.00107 -0.00150 0.00172 0.00236 0.00141
288.09385 0.00129 0.00064 0.00365 -0.00021 0.00129 0.00141
288.10331 0.00129 0.00280 0.00022 0.00302 0.00366 0.00145
288.11281 0.00086 -0.00064 -0.00344 -0.00172 -0.00365 0.00143
288.12227 0.00237 0.00302 0.00000 0.00129 0.00216 0.00142
288.13177 0.00303 0.00475 0.00065 0.00194 0.00216 0.00141
288.14124 0.00022 0.00281 0.00130 0.00194 -0.00086 0.00140
288.15073 -0.00086 0.00130 -0.00086 -0.00108 0.00086 0.00140
288.16019 0.00000 -0.00022 0.00000 -0.00087 0.00173 0.00140
288.16969 0.00043 0.00065 -0.00173 0.00022 -0.00065 0.00139
288.17918 0.00237 0.00065 0.00065 0.00043 0.00129 0.00139
288.18864 0.00064 0.00150 0.00021 0.00086 0.00236 0.00139
288.19814 0.00478 0.00674 0.00239 0.00283 0.00522 0.00145
288.20760 0.00305 0.00327 0.00414 -0.00153 0.00436 0.00152
288.21709 0.00218 0.00175 0.00262 0.00066 -0.00022 0.00140
288.22656 0.00022 0.00000 0.00022 0.00022 -0.00330 0.00143
288.23605 0.00240 0.00415 0.00415 0.00109 0.00131 0.00147
288.24552 0.00131 0.00044 0.00022 0.00131 0.00000 0.00137
288.25502 0.00000 0.00241 0.00088 0.00132 0.00110 0.00139
288.26448 0.00393 0.00349 0.00305 0.00065 0.00044 0.00137
288.27395 0.00175 0.00153 -0.00153 0.00175 -0.00087 0.00137
288.28344 0.00392 0.00044 0.00065 0.00000 -0.00109 0.00135
288.29290 0.00066 0.00262 0.00087 0.00284 0.00153 0.00124
288.30240 0.00198 0.00154 0.00286 0.00286 0.00044 0.00139
288.31186 0.00438 0.00109 0.00131 0.00328 0.00328 0.00138
288.32135 0.00262 0.00022 -0.00022 0.00218 0.00065 0.00138
288.33082 0.00218 0.00197 0.00262 0.00437 0.00197 0.00139
288.34031 0.00000 0.00302 0.00043 0.00000 0.00151 0.00134
288.34977 -0.00043 0.00130 0.00217 0.00260 0.00152 0.00131
288.35924 0.00000 0.00087 -0.00022 -0.00347 0.00325 0.00132
288.36873 -0.00022 -0.00022 0.00302 0.00086 0.00215 0.00133
288.37820 0.00173 0.00043 0.00087 0.00065 0.00216 0.00131
288.38769 0.00151 0.00215 0.00667 0.00345 0.00237 0.00132
288.39715 0.00429 0.00537 -0.00043 0.00386 0.00193 0.00132
288.40663 -0.00065 0.00022 -0.00151 -0.00043 -0.00065 0.00131
288.41612 0.00474 0.00345 0.00388 0.00410 0.00474 0.00132
288.42558 0.00302 0.00129 0.00086 0.00281 0.00086 0.00131
288.43508 -0.00152 0.00195 0.00152 0.00412 0.00087 0.00131
288.44454 0.00151 0.00173 0.00130 0.00151 0.00541 0.00132
288.45400 -0.00130 0.00087 -0.00087 -0.00152 0.00022 0.00133
288.46350 0.00455 0.00282 0.00238 0.00087 0.00390 0.00129
288.47296 0.00130 0.00108 0.00022 0.00086 0.00000 0.00133
288.48242 0.00129 0.00367 -0.00043 0.00324 0.00194 0.00131
288.49192 -0.00021 -0.00107 -0.00021 0.00043 0.00192 0.00133
288.50138 0.00257 0.00107 0.00107 0.00021 0.00129 0.00131
288.51084 0.00385 0.00385 0.00492 0.00299 0.00214 0.00127
288.52034 0.00065 0.00237 -0.00022 0.00129 0.00129 0.00128
288.52980 0.00064 0.00193 0.00043 0.00043 0.00150 0.00127
288.53927 0.00234 0.00469 0.00320 0.00149 0.00064 0.00125
288.54877 0.00128 0.00235 0.00021 0.00299 0.00021 0.00127
288.55823 -0.00063 -0.00063 0.00063 -0.00085 0.00211 0.00127
288.56770 0.00211 0.00274 0.00463 0.00316 0.00316 0.00124
288.57716 0.00063 0.00105 0.00147 0.00084 0.00126 0.00123
288.58665 0.00063 -0.00232 -0.00042 -0.00021 0.00105 0.00122
288.59612 0.00294 0.00525 0.00231 0.00210 0.00483 0.00124
288.60558 0.00275 0.00106 -0.00127 0.00296 0.00021 0.00124
288.61504 0.00423 0.00233 0.00571 0.00317 0.00338 0.00127
288.62454 0.00127 0.00190 0.00317 0.00254 0.00296 0.00123
288.63400 -0.00212 0.00063 0.00127 0.00296 0.00127 0.00123
288.64346 0.00295 0.00190 0.00211 0.00653 0.00084 0.00123
288.65293 0.00444 0.00212 -0.00021 0.00021 0.00508 0.00121
288.66242 0.00191 0.00233 0.00127 0.00170 0.00085 0.00123
288.67189 0.00000 -0.00064 -0.00021 -0.00169 -0.00085 0.00121
288.68135 0.00107 0.00320 0.00000 0.00000 0.00320 0.00123
288.69081 0.00318 0.00127 0.00127 0.00042 0.00403 0.00124
288.70028 -0.00021 0.00192 0.00298 0.00277 0.00213 0.00133
288.70977 -0.00106 0.00106 0.00148 0.00021 0.00106 0.00124
288.71924 0.00213 0.00235 -0.00043 0.00299 0.00213 0.00123
288.72871 0.00171 0.00149 0.00384 0.00320 0.00192 0.00120
288.73817 0.00342 -0.00021 0.00064 0.00150 -0.00064 0.00123
288.74763 0.00406 0.00299 0.00513 0.00128 0.00278 0.00121
288.75713 0.00086 -0.00043 0.00064 0.00129 0.00021 0.00121
288.76659 -0.00322 0.00000 -0.00279 -0.00129 -0.00021 0.00122
288.77605 0.00535 0.00407 0.00471 0.00193 0.00407 0.00121
288.78552 -0.00021 0.00021 0.00064 0.00043 0.00064 0.00119
288.79498 0.00043 0.00319 0.00404 0.00425 0.00170 0.00120
288.80444 0.00128 0.00064 0.00064 -0.00043 -0.00128 0.00120
288.81391 0.00254 0.00169 0.00402 0.00275 0.00127 0.00116
288.82340 0.00021 0.00170 0.00277 -0.00107 0.00170 0.00117
288.83287 0.00064 -0.00021 -0.00086 -0.00064 -0.00086 0.00103
288.84233 0.00064 0.00171 -0.00086 0.00064 0.00236 0.00119
288.85179 0.00235 0.00385 0.00107 0.00128 0.00278 0.00118
288.86126 -0.00086 0.00086 -0.00064 0.00064 -0.00215 0.00119
288.87072 0.00256 -0.00021 0.00128 0.00128 0.00128 0.00118
288.88018 0.00194 0.00065 0.00022 0.00280 0.00237 0.00119
288.88965 0.00064 0.00128 0.00150 -0.00107 -0.00086 0.00119
288.89911 0.00472 0.00472 0.00472 0.00322 0.00279 0.00117
288.90858 0.00021 0.00128 0.00128 0.00235 0.00278 0.00118
288.91808 0.00064 -0.00129 -0.00236 -0.00107 -0.00021 0.00121
288.92754 0.00278 0.00193 0.00043 0.00107 0.00321 0.00123
288.93700 0.00172 0.00022 0.00258 0.00108 0.00129 0.00119
288.94647 -0.00021 0.00107 0.00149 0.00043 -0.00085 0.00115
288.95593 0.00021 0.00215 0.00215 -0.00193 0.00129 0.00117
288.96540 -0.00085 -0.00405 0.00000 -0.00256 -0.00128 0.00117
288.97486 0.00700 0.00488 0.00700 0.00615 0.00509 0.00116
288.98432 0.00277 -0.00277 -0.00021 -0.00043 -0.00170 0.00116
288.99379 0.00210 0.00168 0.00021 0.00105 0.00063 0.00114
289.00325 0.00315 0.00168 0.00231 0.00000 0.00084 0.00114
289.01271 -0.00063 -0.00105 0.00021 0.00063 0.00000 0.00116
289.02218 0.00042 0.00063 0.00021 0.00042 -0.00021 0.00114
289.03164 0.00063 0.00209 0.00209 0.00251 -0.00063 0.00117
289.04110 0.00147 0.00084 0.00189 0.00189 0.00042 0.00112
289.05057 0.00274 0.00042 0.00190 0.00147 0.00379 0.00112
289.06003 0.00021 0.00085 0.00382 -0.00170 -0.00064 0.00118
289.06949 0.00212 0.00191 0.00233 0.00275 0.00275 0.00113
289.07896 -0.00084 -0.00169 -0.00211 -0.00105 -0.00063 0.00121
289.08842 0.00063 0.00042 0.00127 0.00085 0.00127 0.00128
289.09788 -0.00064 -0.00021 0.00000 -0.00042 0.00106 0.00114
289.10736 -0.00106 0.00127 -0.00021 -0.00106 -0.00127 0.00112
289.11682 0.00105 0.00000 0.00000 0.00316 0.00084 0.00111
289.12629 0.00127 0.00169 0.00000 0.00063 0.00127 0.00111
289.13572 0.00021 0.00189 0.00126 0.00084 0.00126 0.00111
289.14518 0.00147 0.00126 -0.00063 0.00168 -0.00189 0.00115
289.15465 0.00125 0.00000 0.00104 -0.00042 0.00000 0.00110
289.16411 0.00000 -0.00042 -0.00272 -0.00084 -0.00147 0.00110
289.17357 0.00021 0.00378 0.00189 0.00357 -0.00147 0.00113
289.18304 0.00291 -0.00083 -0.00167 -0.00125 -0.00104 0.00108
289.19250 -0.00083 0.00000 0.00146 -0.00062 0.00104 0.00109
289.20196 0.00309 0.00247 0.00165 0.00124 0.00206 0.00112
289.21143 0.00000 0.00083 0.00186 0.00041 0.00083 0.00109
289.22089 -0.00103 0.00082 0.00103 -0.00185 0.00123 0.00110
289.23032 0.00204 0.00225 -0.00020 0.00041 0.00204 0.00107
289.23979 -0.00062 -0.00206 -0.00289 -0.00248 -0.00206 0.00105
289.24925 0.00331 0.00021 -0.00021 0.00021 0.00165 0.00108
289.25872 -0.00062 0.00021 0.00227 0.00041 -0.00021 0.00106
289.26818 0.00103 0.00041 0.00041 0.00041 0.00021 0.00106
289.27764 -0.00021 -0.00205 0.00062 0.00144 -0.00103 0.00106
289.28711 -0.00124 0.00207 0.00062 0.00186 -0.00104 0.00107
289.29654 0.00104 0.00083 0.00145 0.00041 -0.00062 0.00105
289.30600 0.00432 0.00411 0.00329 0.00206 0.00041 0.00107
289.31547 0.00145 0.00062 0.00165 0.00021 0.00021 0.00108
289.32493 -0.00103 0.00186 0.00041 -0.00227 0.00083 0.00105
289.33439 0.00000 0.00062 0.00062 -0.00331 0.00103 0.00107
289.34383 0.00082 -0.00082 0.00144 -0.00062 -0.00124 0.00105
289.35329 0.00332 0.00104 0.00374 0.00332 0.00187 0.00106
289.36276 0.00021 -0.00147 -0.00189 -0.00377 -0.00126 0.00106
289.37223 0.00042 0.00000 0.00042 0.00084 0.00376 0.00103
289.38169 0.00104 -0.00042 -0.00188 0.00209 0.00042 0.00104
289.39112 -0.00126 0.00126 0.00168 0.00147 0.00042 0.00104
289.40059 -0.00210 -0.00377 -0.00356 -0.00336 0.00000 0.00105
289.41005 0.00606 0.00835 0.00272 0.00480 0.00397 0.00105
289.41952 0.00291 0.01349 0.00311 0.00208 0.00000 0.00104
289.42895 -0.00021 0.00125 0.00146 0.00062 0.00062 0.00105
289.43841 0.00146 0.00312 0.00187 0.00125 0.00229 0.00104
289.44788 0.00104 0.00291 0.00311 0.00208 0.00249 0.00105
289.45734 -0.00021 -0.00103 0.00124 -0.00124 -0.00062 0.00103
289.46677 0.00104 0.00250 0.00209 0.00209 0.00146 0.00105
289.47624 0.00062 0.00041 0.00062 -0.00082 0.00082 0.00101
289.48570 -0.00063 -0.00125 -0.00063 -0.00250 -0.00042 0.00105
289.49513 0.00268 0.00062 -0.00041 -0.00021 0.00309 0.00103
289.50460 0.00104 0.00021 0.00146 -0.00042 0.00062 0.00101
289.51406 -0.00145 0.00000 0.00021 0.00021 0.00186 0.00104
289.52352 0.00104 0.00083 0.00104 0.00104 0.00250 0.00103
289.53296 0.00230 -0.00042 0.00125 -0.00146 0.00230 0.00103
289.54242 0.00021 0.00146 0.00125 -0.00021 0.00042 0.00103
289.55189 0.00250 0.00167 -0.00271 0.00167 -0.00188 0.00104
289.56132 -0.00105 0.00084 0.00315 0.00273 0.00231 0.00104
289.57078 -0.00083 0.00083 0.00209 -0.00396 -0.00104 0.00103
289.58025 -0.00126 0.00000 0.00084 -0.00252 0.00126 0.00103
289.58968 0.00000 0.00063 0.00126 0.00042 0.00042 0.00105
289.59914 0.00042 -0.00021 0.00147 0.00000 0.00105 0.00107
289.60858 0.00360 0.00000 0.00000 0.00021 -0.00127 0.00108
289.61804 0.00212 0.00338 0.00063 0.00106 0.00148 0.00104
289.62750 -0.00232 -0.00105 0.00042 -0.00042 0.00021 0.00100
289.63694 0.00127 -0.00105 0.00063 -0.00127 0.00232 0.00104
289.64640 -0.00126 -0.00042 -0.00084 -0.00105 0.00126 0.00107
289.65586 0.00148 0.00169 -0.00021 0.00063 0.00021 0.00105
289.66530 0.00021 -0.00042 0.00126 0.00042 0.00252 0.00105
289.67477 0.00168 -0.00168 -0.00126 -0.00211 0.00105 0.00108
289.68420 0.00168 0.00168 -0.00021 0.00021 0.00126 0.00105
289.69367 -0.00211 0.00021 -0.00063 0.00084 0.00063 0.00101
289.70310 0.00063 -0.00168 0.00000 -0.00252 -0.00126 0.00101
289.71257 0.00021 0.00105 0.00169 0.00169 -0.00042 0.00102
289.72203 -0.00273 -0.00147 -0.00400 -0.00126 0.00063 0.00103
289.73146 0.00105 -0.00105 -0.00190 -0.00401 -0.00084 0.00116
289.74093 -0.00043 -0.00128 -0.00170 -0.00149 -0.00170 0.00103
289.75036 0.00170 0.00170 0.00340 0.00043 0.00170 0.00101
289.75982 0.00254 0.00381 0.00275 0.00338 0.00507 0.00099
289.76926 0.00126 0.00042 0.00190 0.00042 0.00232 0.00103
289.77872 0.00463 0.00252 0.00210 0.00189 0.00147 0.00099
289.78815 0.00021 0.00314 0.00084 0.00189 -0.00105 0.00098
289.79762 0.00146 0.00042 0.00291 0.00104 0.00125 0.00099
289.80705 0.00187 0.00125 0.00499 0.00499 0.00208 0.00099
289.81651 0.00209 0.00167 -0.00021 0.00418 0.00126 0.00099
289.82595 0.00353 0.00166 0.00416 0.00270 0.00062 0.00098
289.83541 -0.00042 -0.00105 -0.00293 -0.00251 -0.00251 0.00099
289.84485 -0.00062 0.00187 0.00083 0.00146 -0.00104 0.00099
289.85431 0.00083 0.00186 0.00103 0.00331 0.00310 0.00100
289.86374 0.00124 -0.00083 0.00083 0.00103 0.00021 0.00099
289.87321 0.00000 0.00207 -0.00166 0.00062 0.00021 0.00095
289.88264 0.00349 0.00390 -0.00082 -0.00082 0.00082 0.00096
289.89210 0.00144 0.00330 0.00371 0.00330 0.00350 0.00096
289.90154 0.00103 0.00041 0.00103 0.00021 -0.00021 0.00095
289.91100 0.00266 0.00307 0.00123 0.00307 0.00430 0.00097
289.92043 0.00515 -0.00103 0.00165 0.00206 0.00103 0.00098
289.92987 0.00103 0.00308 -0.00062 -0.00021 0.00226 0.00096
289.93933 0.00000 -0.00041 0.00020 -0.00143 -0.00102 0.00092
289.94876 0.00268 0.00000 0.00062 0.00144 0.00289 0.00094
289.95823 0.00144 0.00082 -0.00041 0.00288 0.00185 0.00095
289.96766 0.00187 0.00062 0.00083 0.00187 0.00145 0.00095
289.97713 0.00164 0.00041 0.00082 0.00000 0.00082 0.00095
289.98656 0.00041 0.00246 0.00021 0.00062 0.00287 0.00093
289.99599 0.00041 -0.00104 -0.00041 0.00187 -0.00021 0.00095
290.00546 0.00144 0.00041 0.00289 0.00041 -0.00062 0.00098
290.01489 0.00228 0.00249 0.00124 0.00083 0.00145 0.00101
290.02432 0.00269 0.00062 -0.00124 -0.00062 0.00062 0.00093
290.03379 0.00083 0.00227 0.00041 0.00124 0.00227 0.00094
290.04322 0.00082 0.00225 0.00123 0.00328 0.00143 0.00090
290.05268 0.00266 0.00102 0.00082 -0.00205 0.00082 0.00092
290.06212 0.00451 0.00164 0.00349 0.00472 0.00513 0.00092
290.07155 -0.00144 0.00226 0.00350 0.00062 0.00123 0.00093
290.08101 0.00328 0.00164 0.00123 0.00266 0.00328 0.00092
290.09045 -0.00265 0.00000 -0.00184 -0.00306 -0.00061 0.00092
290.09988 0.00163 0.00225 0.00163 -0.00082 -0.00041 0.00092
290.10935 -0.00062 0.00041 -0.00021 -0.00021 -0.00082 0.00090
290.11878 0.00184 0.00163 0.00122 0.00061 0.00286 0.00090
290.12821 0.00143 0.00327 0.00163 0.00307 0.00123 0.00090
290.13765 0.00102 -0.00020 -0.00143 0.00082 0.00020 0.00091
290.14711 0.00286 0.00225 0.00143 0.00102 -0.00020 0.00091
290.15654 0.00103 -0.00165 0.00021 0.00082 0.00062 0.00090
290.16598 0.00393 -0.00021 0.00062 0.00228 0.00186 0.00092
290.17544 0.00288 0.00206 0.00164 0.00206 0.00308 0.00089
290.18487 0.00020 0.00389 0.00184 0.00328 0.00287 0.00091
290.19431 0.00185 -0.00041 0.00021 -0.00144 0.00041 0.00090
290.20374 0.00185 -0.00308 -0.00041 0.00021 0.00062 0.00088
290.21320 0.00288 0.00350 0.00062 0.00227 0.00247 0.00091
290.22264 0.00125 0.00291 0.00146 0.00062 0.00167 0.00092
290.23207 -0.00207 -0.00104 0.00145 -0.00062 0.00041 0.00089
290.24151 0.00042 0.00209 0.00271 0.00083 0.00042 0.00090
290.25097 0.00062 0.00249 0.00166 0.00208 0.00415 0.00090
290.26040 0.00271 0.00271 0.00021 0.00417 0.00396 0.00090
290.26984 0.00248 0.00227 0.00310 0.00434 0.00269 0.00090
290.27927 0.00374 0.00229 0.00270 0.00478 0.00249 0.00090
290.28870 0.00166 0.00021 -0.00249 0.00021 -0.00021 0.00089
290.29817 0.00041 0.00000 -0.00062 -0.00207 0.00124 0.00090
290.30760 0.00394 0.00394 0.00207 0.00373 0.00249 0.00088
290.31703 0.00145 -0.00165 -0.00062 -0.00062 0.00145 0.00088
290.32647 0.00228 -0.00041 0.00062 0.00207 0.00000 0.00090
290.33590 0.00206 -0.00041 0.00021 0.00000 -0.00082 0.00088
290.34536 0.00228 0.00478 0.00042 0.00291 0.00166 0.00088
290.35480 0.00021 0.00124 0.00268 0.00248 -0.00021 0.00086
290.36423 0.00000 -0.00186 -0.00041 -0.00104 0.00083 0.00088
290.37367 0.00208 0.00083 0.00021 -0.00042 0.00000 0.00088
290.38310 0.00291 0.00104 0.00395 0.00146 0.00374 0.00088
290.39253 0.00104 0.00145 0.00249 0.00041 0.00249 0.00089
290.40197 0.00209 0.00584 0.00376 0.00480 0.00689 0.00090
290.41143 -0.00042 0.00083 0.00062 0.00062 0.00083 0.00088
290.42086 0.00021 0.00187 0.00104 -0.00021 0.00062 0.00086
290.43030 0.00309 0.00248 0.00248 0.00268 0.00413 0.00086
290.43973 0.00000 -0.00103 -0.00103 0.00000 0.00103 0.00087
290.44916 -0.00144 -0.00062 -0.00165 -0.00248 -0.00144 0.00087
290.45860 0.00021 0.00041 -0.00103 -0.00083 -0.00083 0.00092
290.46803 0.00309 0.00371 0.00103 0.00289 0.00433 0.00091
290.47746 0.00145 0.00083 0.00124 -0.00021 0.00000 0.00087
290.48690 0.00103 0.00041 -0.00206 0.00103 -0.00082 0.00085
290.49633 0.00166 0.00186 0.00124 -0.00041 0.00062 0.00087
290.50576 -0.00103 -0.00185 -0.00041 0.00124 0.00000 0.00086
290.51520 0.00246 0.00267 0.00185 0.00185 0.00246 0.00085
290.52466 -0.00166 0.00083 -0.00291 -0.00125 -0.00291 0.00087
290.53410 0.00000 0.00268 0.00041 0.00062 0.00165 0.00086
290.54353 0.00000 0.00021 0.00083 0.00167 0.00312 0.00084
290.55296 0.00207 0.00062 0.00227 0.00124 0.00083 0.00083
290.56240 0.00227 0.00000 0.00227 0.00289 0.00372 0.00083
290.57183 -0.00124 -0.00145 -0.00104 -0.00041 0.00000 0.00082
290.58126 0.00351 0.00393 0.00248 0.00165 0.00145 0.00084
290.59070 0.00413 0.00413 0.00454 0.00309 0.00371 0.00088
290.60013 -0.00062 0.00145 0.00186 0.00228 0.00124 0.00086
290.60956 0.00186 0.00372 0.00041 0.00227 0.00103 0.00085
290.61900 0.00000 0.00104 0.00083 0.00187 0.00187 0.00085
290.62843 0.00362 0.00213 0.00128 0.00192 0.00319 0.00088
290.63786 -0.00067 0.00224 0.00067 0.00179 0.00090 0.00088
