# Columns are Wavelength, tx_c, tx_t, tx_l, tx_r, tx_b
290.13239 0.00113 0.00085 0.00028 0.00394 0.00226
290.14202 0.00534 0.00178 0.00059 0.00384 0.00178
290.15163 0.00339 0.00251 0.00280 0.00367 0.00368
290.16124 -0.00103 0.00222 -0.00279 0.00220 0.00162
290.17087 0.00264 0.00206 0.00029 0.00263 0.00352
290.18048 0.00192 0.00103 0.00074 0.00015 0.00103
290.19013 0.00164 0.00284 0.00283 0.00401 0.00313
290.19975 0.00816 0.00312 0.00519 0.00281 0.00549
290.20936 0.00161 -0.00103 0.00219 0.00015 -0.00103
290.21898 0.00513 0.00398 0.00308 -0.00044 0.00220
290.22859 0.00147 0.00059 0.00000 0.00147 -0.00118
290.23821 0.00119 0.00119 0.00385 0.00295 0.00267
290.24783 0.00148 0.00328 0.00444 0.00561 0.00683
290.25744 0.00459 0.00282 0.00044 0.00221 -0.00193
290.26706 0.00134 0.00463 0.00312 0.00104 0.00342
290.27668 0.00478 -0.00060 0.00179 0.00178 0.00120
290.28629 0.00059 0.00149 0.00415 0.00444 0.00505
290.29592 -0.00219 0.00044 -0.00277 -0.00160 0.00161
290.30553 0.00189 0.00248 0.00305 0.00421 0.00423
290.31514 0.00044 0.00074 0.00073 0.00453 0.00865
290.32476 0.00207 0.00297 0.00326 0.00237 0.00357
290.33438 0.00432 0.00284 0.00431 0.00133 0.00373
290.34399 0.00283 -0.00224 0.00164 -0.00074 -0.00045
290.35361 -0.00030 0.00270 0.00179 0.00119 0.00000
290.36323 0.00045 -0.00136 -0.00105 -0.00105 -0.00136
290.37284 0.00242 0.00212 0.00091 0.00180 -0.00030
290.38246 -0.00180 -0.00211 0.00330 0.00000 -0.00180
290.39208 0.00464 -0.00045 0.00225 0.00523 0.00255
290.40170 0.00648 0.00591 0.00618 0.00346 0.00347
290.41131 0.00423 0.00242 0.00392 0.00331 0.00513
290.42093 0.00630 0.00242 0.00240 0.00690 0.00090
290.43055 0.00377 0.00559 0.00286 0.00616 0.00075
290.44016 0.00181 -0.00212 0.00090 0.00030 0.00241
290.44977 0.00346 0.00347 0.00346 0.00524 0.00678
290.45940 0.00467 0.00257 -0.00136 0.00436 0.00226
290.46901 0.00197 -0.00107 -0.00258 -0.00045 -0.00167
290.47862 0.00198 0.00626 0.00441 0.00348 0.00411
290.48825 0.00471 0.00137 0.00380 0.00257 0.00715
290.49786 0.00182 0.00122 0.00425 0.00545 0.00637
290.50748 0.00320 0.00229 0.00471 0.00531 0.00198
290.51710 0.00579 0.00184 0.00274 0.00365 0.00701
290.52671 -0.00030 0.00182 0.00333 0.00120 0.00454
290.53633 0.00105 0.00465 -0.00194 0.00045 0.00374
290.54594 0.00433 0.00284 0.00253 -0.00311 -0.00015
290.55553 0.00195 0.00377 0.00195 0.00374 0.00465
290.56515 0.00437 0.00529 0.00407 0.00825 0.00558
290.57476 0.00333 0.00273 0.00302 0.00301 -0.00060
290.58438 0.00000 0.00061 0.00121 0.00060 -0.00030
290.59400 0.00436 0.00227 0.00285 0.00135 -0.00045
290.60361 0.00000 0.00180 -0.00120 0.00358 0.00299
290.61324 0.00443 0.00326 0.00148 0.00265 0.00148
290.62285 0.00147 0.00236 0.00206 0.00264 0.00235
290.63246 0.00369 0.00340 0.00368 0.00514 0.00133
290.64205 0.00502 0.00415 0.00000 0.00411 0.00473
290.65167 0.00103 0.00637 0.00665 0.00604 0.00399
290.66128 0.00251 0.00074 0.00222 0.00162 0.00044
290.67090 0.00354 0.00356 0.00059 0.00235 0.00325
290.68052 0.00457 0.00222 0.00074 0.00308 0.00221
290.69013 0.00176 0.00177 0.00557 0.00146 0.00059
290.69975 0.00396 0.00221 0.00220 0.00452 0.00132
290.70933 0.00427 0.00192 0.00015 0.00161 -0.00133
290.71896 -0.00118 0.00000 -0.00088 0.00382 0.00325
290.72857 0.00030 0.00000 0.00059 0.00235 -0.00118
290.73818 0.00192 0.00163 -0.00162 0.00132 0.00103
290.74781 0.00326 0.00447 0.00445 0.00354 -0.00148
290.75739 0.00475 0.00358 0.00238 0.00591 -0.00119
290.76700 0.00371 0.00194 -0.00163 0.00458 0.00519
290.77663 0.00208 0.00358 0.00356 0.00119 0.00416
290.78624 0.00298 0.00508 -0.00030 0.00148 0.00060
290.79585 0.00253 0.00075 0.00312 0.00281 0.00669
290.80544 0.00355 0.00267 0.00295 0.00382 0.00089
290.81506 0.00192 0.00015 0.00545 -0.00162 0.00221
290.82468 0.00456 0.00458 0.00427 0.00483 0.00486
290.83429 0.00161 0.00485 -0.00102 0.00190 0.00073
290.84388 -0.00029 0.00204 0.00116 0.00376 0.00204
290.85350 0.00452 0.00337 0.00277 0.00479 0.00424
290.86311 -0.00175 0.00088 0.00000 0.00000 0.00175
290.87272 0.00348 0.00466 0.00522 0.00463 0.00581
290.88232 0.00421 0.00335 0.00305 0.00391 0.00479
290.89193 0.00247 0.00132 -0.00277 0.00044 0.00218
290.90154 0.00146 0.00408 0.00291 0.00145 0.00204
290.91117 -0.00015 0.00277 -0.00044 0.00072 0.00073
290.92075 0.00130 0.00188 0.00476 0.00158 0.00159
290.93037 0.00203 0.00000 0.00406 0.00289 0.00000
290.93999 0.00334 0.01034 0.00305 0.00592 0.00189
290.94960 0.00173 0.00203 -0.00087 0.00144 0.00174
290.95919 0.00358 0.00331 0.00186 0.00385 0.00444
290.96880 0.00114 0.00430 0.00142 -0.00057 0.00257
290.97842 0.00200 0.00315 0.00371 0.00655 0.00343
290.98801 -0.00014 -0.00014 0.00298 0.00156 -0.00128
290.99762 0.00582 0.00242 0.00468 0.00721 0.00440
291.00724 0.00526 0.00357 0.00469 0.00808 0.00498
291.01683 0.00513 0.00457 0.00541 0.00567 0.00142
291.02644 0.00057 0.00539 0.00283 0.00619 -0.00085
291.03606 0.00337 0.00141 0.00336 0.00223 0.00449
291.04565 0.00168 0.00056 0.00168 -0.00028 0.00252
291.05526 0.00042 0.00379 0.00210 0.00014 0.00518
291.06488 -0.00182 -0.00014 0.00042 -0.00042 0.00014
291.07446 0.00337 0.00028 0.00140 0.00000 0.00196
291.08408 0.00254 -0.00170 -0.00028 0.00056 0.00085
291.09370 0.00340 0.00456 0.00142 0.00367 0.00539
291.10328 0.00438 0.00213 0.00381 0.00155 0.00325
291.11290 0.00339 0.00199 0.00141 0.00309 0.00028
291.12249 0.00525 0.00185 0.00723 0.00550 0.00241
291.13210 0.00356 0.00272 -0.00043 0.00071 0.00442
291.14173 0.00344 0.00288 0.00057 0.00799 0.00115
291.15131 0.00517 0.00462 0.00489 0.00544 0.00086
291.16092 0.00520 0.00492 0.00404 0.00029 0.00144
291.17051 -0.00159 0.00072 0.00072 0.00014 -0.00188
291.18013 0.00244 0.00360 0.00100 0.00443 0.00158
291.18974 0.00384 0.00214 0.00525 0.00609 0.00270
291.19933 0.00525 0.00242 0.00184 0.00212 0.00383
291.20894 0.00256 -0.00029 -0.00142 0.00085 0.00057
291.21853 0.00400 0.00344 0.00285 0.00370 0.00428
291.22815 0.00602 0.00461 0.00431 0.00257 0.00374
291.23773 0.00029 -0.00202 0.00257 0.00285 0.00315
291.24736 0.00371 0.00286 0.00257 0.00085 0.00114
291.25697 -0.00199 -0.00143 0.00028 0.00538 0.00398
291.26655 0.00522 0.00213 0.00380 0.00464 0.00325
291.27617 0.00535 0.00169 0.00282 0.00168 0.00732
291.28576 0.00453 0.00114 0.00283 0.00169 0.00482
291.29537 0.00312 0.00086 0.00453 0.00198 0.00482
291.30496 0.00241 0.00497 0.00382 0.00099 0.00326
291.31458 -0.00128 0.00271 -0.00042 0.00014 0.00411
291.32416 0.00157 -0.00129 0.00157 0.00156 0.00014
291.33378 0.00284 0.00342 0.00426 0.00311 0.00398
291.34336 -0.00199 0.00171 0.00170 0.00113 0.00114
291.35299 0.00157 0.00445 0.00471 0.00413 0.00357
291.36257 0.00532 0.00418 0.00158 0.00100 -0.00072
291.37218 0.00545 0.00202 0.00459 0.00371 0.00459
291.38177 0.00446 0.00477 0.00187 0.00758 0.00475
291.39139 0.00474 0.00361 -0.00043 0.00244 0.00475
291.40097 0.00276 0.00395 0.00392 0.00709 -0.00015
291.41059 0.00249 0.00339 0.00249 0.00248 0.00425
291.42018 0.00175 0.00294 0.00058 0.00262 0.00263
291.42979 -0.00058 0.00117 0.00117 -0.00116 0.00234
291.43938 0.00219 0.00425 0.00510 0.00421 0.00248
291.44899 0.00656 0.00395 0.00569 0.00827 0.00511
291.45859 0.00601 0.00103 0.00482 0.00657 0.00366
291.46817 0.00338 0.00486 0.00278 0.00453 0.00426
291.47778 0.00409 0.00498 0.00408 0.00407 0.00497
291.48738 0.00174 0.00349 0.00203 0.00173 0.00174
291.49699 0.00232 -0.00029 0.00202 0.00000 0.00000
291.50657 0.00087 0.00145 0.00000 -0.00115 0.00087
291.51619 0.00261 -0.00058 0.00404 0.00202 0.00347
291.52578 0.00290 0.00349 -0.00029 0.00202 0.00058
291.53536 0.00015 -0.00218 0.00188 -0.00159 -0.00073
291.54498 0.00262 -0.00029 0.00437 0.00494 0.00117
291.55456 0.00307 0.00103 0.00161 0.00510 0.00571
291.56419 0.00438 0.00322 0.00466 0.00930 0.00263
291.57377 -0.00160 -0.00044 -0.00160 0.00334 -0.00015
291.58335 0.00338 0.00103 0.00485 0.00220 -0.00074
291.59298 0.00163 0.00460 -0.00163 0.00251 0.00104
291.60256 0.00250 0.00547 0.00397 0.00249 0.00280
291.61217 -0.00088 0.00089 0.00206 0.00234 0.00323
291.62176 0.00485 0.00456 0.00601 0.00248 0.00338
291.63135 0.00470 0.00266 0.00559 0.00381 0.00382
291.64096 0.00132 0.00250 0.00279 0.00685 0.00425
291.65055 0.00661 0.00458 0.00073 0.00571 0.00397
291.66013 0.00370 0.00045 0.00281 0.00280 0.00400
291.66976 0.00358 0.00479 0.00268 0.00682 0.00686
291.67934 0.00223 0.00104 0.00222 -0.00074 0.00223
291.68892 0.00399 0.00134 0.00428 0.00338 0.00340
291.69855 0.00427 0.00074 0.00250 0.00308 0.00339
291.70813 0.00044 0.00221 0.00103 -0.00132 0.00455
291.71771 0.00409 0.00235 0.00233 0.00407 0.00205
291.72733 0.00600 0.00308 0.00073 0.00598 0.00571
291.73692 0.00457 0.00665 0.00839 0.00718 0.00722
291.74650 0.00296 0.00594 0.00324 0.00353 0.00148
291.75609 0.00207 0.00267 0.00089 0.00206 0.00474
291.76570 0.00089 0.00386 0.00267 0.00472 0.00710
291.77530 0.00591 0.00267 0.00295 0.00265 0.00000
291.78488 0.00250 0.00456 0.00454 0.00161 0.00309
291.79449 -0.00015 -0.00015 0.00015 -0.00131 -0.00015
291.80408 0.00544 0.00222 0.00250 0.00337 0.00250
291.81367 0.00341 0.00074 0.00280 0.00074 0.00133
291.82325 0.00503 0.00535 0.00414 0.00738 0.00474
291.83287 -0.00059 0.00411 0.00088 0.00321 0.00557
291.84246 -0.00131 0.00161 0.00073 0.00217 -0.00219
291.85204 -0.00015 -0.00015 -0.00131 -0.00247 0.00190
291.86163 0.00263 0.00117 0.00410 0.00437 0.00204
291.87124 0.00351 0.00235 0.00351 0.00146 0.00498
291.88084 0.00308 0.00339 0.00338 0.00483 0.00749
291.89042 0.00132 0.00515 0.00776 0.00307 0.00279
291.90000 0.00220 0.00074 0.00336 0.00569 0.00513
291.90959 0.00612 0.00322 0.00349 0.00290 0.00496
291.91921 0.00391 0.00305 -0.00014 0.00014 0.00391
291.92879 0.00290 0.00233 0.00116 0.00202 0.00058
291.93838 0.00262 0.00613 0.00669 0.00493 0.00758
291.94796 0.00262 -0.00117 -0.00029 0.00145 -0.00058
291.95755 0.00159 -0.00014 -0.00043 -0.00014 -0.00072
291.96717 0.00445 0.00389 0.00530 0.00529 0.00359
291.97675 0.00259 0.00520 0.00144 0.00057 -0.00144
291.98634 0.00274 0.00449 0.00187 0.00359 0.00159
291.99593 -0.00072 0.00304 -0.00014 0.00158 0.00101
292.00551 0.00390 0.00595 0.00130 0.00187 0.00506
292.01513 0.00174 -0.00058 0.00145 0.00346 0.00174
292.02472 0.00521 0.00000 0.00433 0.00461 0.00289
292.03430 0.00377 0.00262 0.00289 0.00403 0.00087
292.04389 0.00333 0.00131 0.00043 0.00245 -0.00014
292.05347 0.00421 0.00247 0.00361 0.00505 0.00421
292.06306 0.00465 0.00409 0.00087 0.00405 -0.00146
292.07265 0.00189 0.00541 0.00189 0.00420 0.00335
292.08226 0.00420 0.00422 0.00188 0.00389 0.00392
292.09185 0.00464 0.00174 0.00145 0.00231 0.00116
292.10144 0.00058 0.00318 0.00490 0.00401 0.00346
292.11102 0.00376 0.00465 0.00289 0.00548 0.00174
292.12061 0.00233 0.00146 0.00291 0.00378 0.00525
292.13019 0.00000 0.00293 0.00058 0.00116 0.00467
292.13978 -0.00101 0.00247 0.00159 0.00331 0.00362
292.14937 0.00563 0.00217 0.00274 0.00647 0.00476
292.15895 0.00374 0.00550 0.00518 0.00516 0.00202
292.16854 0.00576 0.00578 0.00259 0.00459 0.00634
292.17813 0.00517 0.00666 0.00029 0.00086 0.00058
292.18774 0.00664 0.00203 0.00288 0.00258 0.00520
292.19733 0.00029 0.00145 0.00058 0.00058 -0.00174
292.20691 0.00306 0.00365 0.00189 0.00189 0.00248
292.21650 0.00306 0.00190 0.00538 0.00246 0.00248
292.22609 0.00480 0.00481 0.00102 0.00246 0.00480
292.23567 0.00395 0.00691 0.00600 0.00598 0.00220
292.24525 0.00484 0.00221 0.00512 0.00248 0.00308
292.25485 0.00626 0.00307 0.00363 0.00420 0.00219
292.26443 0.00911 0.00160 0.00476 0.00418 0.00246
292.27402 0.00448 0.00218 0.00478 0.00446 0.00478
292.28360 0.00448 0.00537 0.00534 0.00677 0.00680
292.29319 0.00549 0.00639 0.00635 0.00748 0.00145
292.30278 0.00566 0.00569 0.00565 0.00767 0.00595
292.31236 0.00351 0.00236 0.00732 0.00204 0.00351
292.32194 0.00251 0.00252 0.00192 0.00485 0.00783
292.33154 0.00193 0.00134 0.00193 -0.00133 0.00163
292.34112 0.00771 0.00388 0.00445 0.00737 0.00771
292.35070 0.00578 0.00372 0.00400 0.00340 0.00518
292.36029 0.00531 0.00296 0.00558 0.00499 0.00355
292.36988 0.00439 0.00029 0.00117 0.00204 0.00263
292.37947 0.00044 0.00512 0.00394 0.00160 0.00307
292.38905 0.00571 0.00603 0.00044 0.00102 0.00542
292.39863 0.00368 0.00398 0.00484 0.00717 0.00485
292.40823 0.00471 0.00415 0.00472 0.00029 0.00502
292.41781 0.00280 0.00399 0.00810 0.00602 0.00427
292.42739 0.00515 0.00428 0.00220 0.00249 0.00693
292.43698 0.00466 0.00615 0.00495 0.00349 0.00468
292.44657 0.00564 0.00305 0.00361 0.00504 0.00679
292.45615 0.00129 0.00072 0.00273 0.00129 0.00245
292.46571 0.00101 0.00101 0.00158 0.00446 0.00188
292.47529 0.00405 0.00407 0.00145 0.00461 0.00579
292.48489 0.00373 0.00489 0.00487 0.00571 0.00115
292.49447 0.00171 0.00143 0.00483 0.00510 0.00684
292.50405 0.00498 0.00443 0.00698 0.00439 0.00697
292.51364 0.00515 0.00516 0.00428 0.00313 0.00286
292.52323 0.00585 0.00273 0.00272 0.00441 0.00072
292.53281 0.00613 0.00760 0.00357 0.00356 0.00615
292.54240 0.00244 0.00245 0.00445 0.00329 0.00503
292.55198 0.00390 0.00567 0.00274 0.00359 0.00535
292.56154 0.00639 0.00524 0.00465 0.00607 0.00145
292.57113 0.00421 0.00422 0.00420 0.00159 0.00740
292.58071 0.00565 0.00247 0.00680 0.00447 0.00652
292.59030 0.00406 0.00175 0.00551 0.00665 0.00580
292.59989 0.00763 0.00535 0.00504 0.00273 0.00418
292.60947 0.00486 0.00546 0.00429 0.00655 0.00458
292.61906 0.00229 0.00259 0.00057 0.00455 0.00371
292.62861 0.00401 0.00489 0.00172 0.00228 0.00315
292.63820 0.00716 -0.00288 0.00286 -0.00114 0.00575
292.64779 0.00213 0.00186 0.00498 0.00383 0.00499
292.65737 0.00554 0.00185 0.00156 0.00466 0.00639
292.66695 0.00468 0.00526 0.00438 0.00606 0.00807
292.67655 0.00352 0.00410 0.00183 0.00155 0.00466
292.68610 0.00099 0.00127 0.00520 0.00351 0.00324
292.69569 -0.00014 -0.00042 0.00267 0.00154 0.00352
292.70527 0.00510 0.00855 0.00680 0.00565 0.00284
292.71486 0.00071 0.00271 0.00384 0.00552 0.00355
292.72445 0.00626 0.00486 0.00398 0.00511 0.00370
292.73400 0.00100 0.00272 0.00328 0.00298 0.00271
292.74358 0.00384 0.00071 0.00327 0.00581 0.00128
292.75318 0.00340 -0.00085 0.00483 0.00339 0.00284
292.76276 0.00185 0.00214 0.00184 0.00410 0.00242
292.77232 0.00468 0.00271 0.00299 0.00410 0.00299
292.78190 0.00440 0.00357 0.00697 0.00666 0.00299
292.79148 0.00540 0.00771 0.00596 0.01017 0.00454
292.80108 0.00170 0.00199 0.00085 0.00028 0.00114
292.81063 0.00355 0.00270 0.00551 0.00466 0.00524
292.82021 0.00580 0.00582 0.00581 0.00352 0.00523
292.82980 0.00566 0.00851 0.00848 0.00649 0.00736
292.83939 0.00409 0.01090 0.00409 0.00829 0.00720
292.84894 0.00283 0.00114 0.00085 -0.00226 0.00170
292.85853 0.00200 0.00373 0.00343 0.00341 0.00143
292.86811 0.00186 -0.00072 0.00043 0.00157 0.00301
292.87771 0.00171 0.00258 0.00428 0.00170 0.00371
292.88726 0.00342 0.00257 0.00313 0.00738 0.00654
292.89684 0.00256 0.00285 0.00368 0.00142 0.00483
292.90643 0.00973 0.00920 0.00747 0.00407 0.00917
292.91599 0.00576 0.00720 0.00547 0.00601 0.00660
292.92557 0.00155 0.00071 0.00070 0.00323 -0.00099
292.93516 0.00668 0.00500 0.00780 0.00779 0.00384
292.94471 0.00804 0.00577 0.00201 0.00600 0.00316
292.95429 0.00359 0.00188 0.00330 0.00472 0.00475
292.96389 0.00488 0.00317 0.00659 0.00457 0.00286
292.97344 0.00730 0.00216 0.00186 0.00443 0.00272
292.98303 0.00487 0.00546 0.00315 0.00513 0.00516
292.99261 0.00541 0.00000 -0.00142 0.00651 0.00427
293.00217 0.00114 0.00143 0.00398 0.00085 0.00257
293.01176 0.00243 0.00330 0.00357 0.00442 0.00358
293.02134 0.00585 0.00215 0.00071 0.00413 0.00701
293.03089 0.00214 0.00158 0.00386 0.00185 0.00586
293.04049 0.00657 0.00602 0.00486 0.00683 0.00857
293.05004 0.00873 0.00532 0.00587 0.00643 0.00903
293.05962 0.00500 0.00503 0.00587 0.00613 0.00645
293.06921 0.00760 0.00677 0.00959 0.00271 0.00818
293.07877 0.00400 0.00518 0.00486 0.00655 0.00572
293.08836 0.00029 0.00230 0.00201 0.00086 0.00000
293.09791 0.00245 0.00303 0.00618 0.00358 0.00475
293.10749 0.00377 0.00524 0.00290 0.00434 0.00551
293.11708 0.00363 0.00189 0.00450 0.00333 0.00655
293.12664 0.00509 0.00073 0.00596 0.00478 0.00248
293.13622 0.00274 0.00246 0.00504 0.00359 0.00591
293.14578 0.00918 0.00691 0.00831 0.00514 0.00488
293.15536 0.00630 0.00805 0.00515 0.01027 0.00803
293.16492 0.00647 0.00533 0.00559 0.00615 0.00792
293.17451 0.00534 0.00593 0.00591 0.00532 0.00708
293.18409 0.00825 0.00596 0.00246 0.00649 0.00420
293.19365 0.00490 0.00202 0.00490 0.00805 0.00520
293.20324 0.00229 0.00345 0.00343 0.00257 0.00143
293.21279 0.00327 0.00071 0.00497 0.00298 0.00526
293.22238 0.00707 0.00879 0.00734 0.00928 0.00537
293.23193 0.00606 -0.00099 0.00493 0.00492 0.00409
293.24151 0.00283 0.00454 0.00480 0.00761 0.00368
293.25108 0.00482 0.00655 0.00482 0.00141 0.00284
293.26066 0.00736 0.00824 0.00339 0.00592 0.00877
293.27022 0.00877 0.00512 0.00680 0.01186 0.00821
293.27980 0.00311 0.00313 0.00255 0.00479 0.00255
293.28936 0.00382 0.00582 0.00466 0.00408 0.00495
293.29895 0.00325 0.00127 0.00380 0.00155 0.00438
293.30850 0.00637 0.00952 0.00580 0.00409 0.00695
293.31808 0.00341 0.00400 0.00398 0.00878 0.00313
293.32764 0.00613 0.00329 0.00527 0.00894 0.00755
293.33723 0.00286 0.00000 0.00286 -0.00028 0.00429
293.34678 0.00657 0.00516 0.00886 0.00712 0.00772
293.35637 0.00630 0.00690 0.00601 0.00400 0.00718
293.36592 0.00617 0.00418 0.00445 0.00587 0.00331
293.37549 0.00473 0.00706 0.00989 0.00730 0.00416
293.38507 0.00289 0.00463 0.00577 0.00287 -0.00029
293.39462 0.00910 0.00623 0.01110 0.00532 0.00766
293.40421 0.00317 0.00404 0.00518 0.00487 0.00317
293.41376 0.00760 0.00849 0.00501 0.00642 0.00474
293.42335 -0.00215 0.00446 0.00100 0.00357 0.00215
293.43291 0.00500 0.00759 0.00128 0.00781 0.00385
293.44246 0.00797 0.00428 0.00880 0.00538 0.00881
293.45204 0.00738 0.00797 0.00652 0.00481 0.00398
293.46161 0.00628 0.00659 0.00285 0.00370 0.00458
293.47119 0.00800 0.00689 0.00399 0.00142 0.00200
293.48075 0.00556 0.00644 0.00555 0.00355 0.00470
293.49030 0.00585 0.00759 0.00784 0.00668 0.00671
293.49988 0.00357 0.00587 0.00300 0.00498 0.00529
293.50945 0.00258 0.00230 0.00457 0.00456 0.00315
293.51903 0.00774 0.00317 0.00458 0.00772 0.00689
293.52858 0.00532 0.00852 0.00791 0.00673 0.00706
293.53814 0.00621 -0.00015 0.00419 0.00676 0.00448
293.54773 0.00597 0.00600 0.00744 0.00507 0.00481
293.55728 0.00451 0.00570 0.00653 0.00739 0.00917
293.56684 0.00698 0.00641 0.00523 0.00549 0.00813
293.57642 0.00379 0.00849 0.00553 0.00522 0.00467
293.58598 0.00703 0.00118 0.00556 0.00584 0.00586
293.59554 0.00397 0.00694 0.00896 0.00601 0.00427
293.60512 0.00752 0.00429 0.00692 0.00718 0.00546
293.61468 0.00636 0.00758 0.00370 0.01046 0.00725
293.62423 0.00342 0.00492 0.00609 0.00783 0.00787
293.63382 0.00282 0.00402 0.00933 0.00339 0.00936
293.64338 0.00871 0.00281 0.00693 0.00456 0.00576
293.65293 0.00441 0.00501 0.00675 0.00263 0.00441
293.66252 0.00807 0.00545 0.00864 0.00715 0.00834
293.67207 0.00748 0.00486 0.00396 0.00599 0.00866
293.68163 0.00545 0.00516 0.00426 0.00337 0.00603
293.69119 0.00739 0.01008 0.00827 0.01177 0.00682
293.70077 0.01013 0.00688 0.00506 0.01066 0.00656
293.71032 0.00892 0.00777 0.00386 0.00831 0.00982
293.71988 0.00386 0.00179 0.00772 0.00325 0.00445
293.72944 0.00625 0.00657 0.00772 0.00474 0.00715
293.73902 0.00729 0.00911 0.00729 0.00726 0.00909
293.74858 0.00552 0.00883 0.00700 0.00758 0.00702
293.75813 0.01017 0.00511 0.00747 0.00448 0.00658
293.76769 0.00599 0.00301 0.00718 0.00596 0.00449
293.77728 0.00494 0.00346 0.00523 0.00612 0.00375
293.78683 0.00953 0.00807 0.00476 0.00712 0.00776
293.79639 0.00711 0.00713 0.01123 0.00766 0.00947
293.80594 0.00264 0.00295 0.00646 0.00498 0.00796
293.81553 0.00721 0.00842 0.00514 0.00630 0.00721
293.82509 0.00648 0.00681 0.00941 0.00587 0.00825
293.83464 0.00638 0.00432 0.00400 0.00251 0.00668
293.84419 0.00831 0.00715 0.00830 0.00503 0.00802
293.85375 0.00607 0.00936 0.00666 0.00368 0.00489
293.86334 0.00912 0.00591 0.00587 0.00851 0.00648
293.87290 0.00554 0.00352 0.00728 0.00436 0.00497
293.88245 0.00727 0.01286 0.01076 0.00666 0.00873
293.89200 0.01009 0.01012 0.00482 0.00597 0.00803
293.90156 0.00422 0.00278 0.00743 0.00305 0.00628
293.91112 0.00652 0.01003 0.00881 0.00677 0.00767
293.92070 0.00737 0.00131 0.00447 0.00503 0.00505
293.93026 0.00493 0.00583 0.00637 0.00606 0.00638
293.93981 0.00699 0.01171 0.00552 0.00841 0.00846
293.94937 0.00510 0.00656 0.00508 0.00680 0.00772
293.95893 0.00786 0.00614 0.00728 0.00726 0.00554
293.96848 0.00759 0.00823 0.00671 0.00728 0.00847
293.97804 0.00497 0.00586 0.00584 0.00524 0.00788
293.98762 0.00778 0.00633 0.00689 0.00802 0.00396
293.99718 0.01246 0.00781 0.01187 0.01038 0.00777
294.00674 0.00883 0.00828 0.00941 0.00704 0.01032
294.01629 0.00621 -0.00030 0.00355 0.00412 0.00739
294.02584 0.01050 0.00787 0.00724 0.00840 0.00518
294.03540 0.00915 0.01009 0.00855 0.00764 0.00708
294.04496 0.00381 0.00825 0.00880 0.00671 0.00617
294.05452 0.00351 0.00499 0.00614 0.00466 0.00762
294.06407 0.00913 0.00798 0.00206 0.00675 0.00855
294.07362 0.00561 0.00474 0.00530 0.00823 0.00886
294.08318 0.00878 0.00618 0.01143 0.01196 0.00909
294.09277 0.00685 0.00833 0.00975 0.00856 0.00743
294.10232 0.00903 0.00555 0.00814 0.00754 0.00728
294.11188 0.00959 0.01053 0.00814 0.00985 0.00844
294.12143 0.00654 0.00715 0.01002 0.00795 0.00800
294.13098 0.00930 0.00846 0.00986 0.00723 0.00989
294.14055 0.00539 0.00454 0.00510 0.00856 0.00335
294.15010 0.00907 0.00792 0.00964 0.00495 0.00819
294.15966 0.00467 0.01115 0.00729 0.01018 0.01051
294.16921 0.00873 0.01083 0.00961 0.00436 0.00642
294.17876 0.00628 0.00836 0.00949 0.01004 0.01009
294.18833 0.00866 0.00841 0.00543 0.00658 0.00603
294.19788 0.00911 0.00856 0.00938 0.01054 0.01146
294.20743 0.00821 0.00824 0.00673 0.00584 0.00732
294.21699 0.00615 0.00324 0.00380 0.00845 0.00587
294.22654 0.00834 0.00690 0.00892 0.00510 0.00863
294.23610 0.01194 0.00877 0.00757 0.00696 0.01020
294.24566 0.00853 0.00742 0.00968 0.00620 0.00997
294.25521 0.00795 0.00625 0.00622 0.00706 0.00942
294.26477 0.00568 0.00716 0.00770 0.00536 0.00714
294.27432 0.00804 0.00925 0.00511 0.00684 0.00863
294.28388 0.00993 0.00849 0.00641 0.00756 0.00641
294.29344 0.01046 0.00905 0.00698 0.00694 0.00873
294.30299 0.00914 0.00569 0.00682 0.00564 0.00798
294.31254 0.00708 0.01177 0.00796 0.01196 0.01143
294.32210 0.00821 0.00853 0.00619 0.00875 0.01053
294.33166 0.00591 0.00738 0.00619 0.00733 0.00823
294.34119 0.00580 0.00758 0.01043 0.00926 0.00930
294.35074 0.00976 0.01097 0.01237 0.01146 0.00657
294.36029 0.00742 0.01037 0.01235 0.00943 0.00976
294.36985 0.00944 0.01095 0.00827 0.00883 0.00800
294.37941 0.00855 0.00830 0.01057 0.00968 0.00885
294.38896 0.00708 0.00798 0.00794 0.00791 0.01259
294.39852 0.01121 0.01068 0.01207 0.00944 0.01408
294.40807 0.00775 0.00923 0.00688 0.00887 0.00460
294.41762 0.01144 0.00800 0.00883 0.01025 0.01059
294.42719 0.00509 0.00891 0.00828 0.00885 0.00685
294.43671 0.00765 0.00913 0.00966 0.00561 0.00707
294.44627 0.01147 0.00805 0.01059 0.00999 0.00861
294.45582 0.00886 0.01149 0.01057 0.00912 0.01030
294.46537 0.00929 0.01219 0.00899 0.00984 0.00930
294.47493 0.01200 0.01061 0.00885 0.00712 0.01115
294.48449 0.00986 0.00703 0.00842 0.00726 0.00958
294.49404 0.01593 0.00934 0.01102 0.00729 0.00789
294.50357 0.01023 0.00853 0.00619 0.00874 0.01052
294.51312 0.01034 0.00750 0.01148 0.00745 0.00978
294.52268 0.00727 0.01018 0.01127 0.01066 0.01528
294.53224 0.01381 0.01101 0.00753 0.00779 0.01097
294.54179 0.01027 0.00946 0.00770 0.01450 0.01312
294.55135 0.01236 0.01097 0.00894 0.00919 0.01064
294.56087 0.01100 0.01049 0.00902 0.00900 0.00904
294.57042 0.01223 0.01002 0.01052 0.00714 0.00970
294.57999 0.01059 0.00693 0.01027 0.01053 0.01142
294.58954 0.01353 0.01076 0.01099 0.00955 0.01044
294.59909 0.00918 0.00724 0.00777 0.00802 0.00835
294.60862 0.00966 0.01111 0.01390 0.01074 0.00994
294.61817 0.01280 0.01342 0.01251 0.01104 0.01166
294.62774 0.00907 0.00911 0.00906 0.00986 0.00936
294.63729 0.01626 0.01148 0.01398 0.01140 0.01146
294.64684 0.01104 0.00879 0.01272 0.00845 0.01189
294.65637 0.01177 0.01069 0.01120 0.00919 0.01037
294.66592 0.01053 0.01058 0.01166 0.00822 0.01482
294.67547 0.00898 0.01388 0.01410 0.01121 0.01014
294.68504 0.01211 0.01101 0.01153 0.01574 0.01582
294.69456 0.00938 0.00998 0.01021 0.01160 0.01052
294.70411 0.00889 0.00979 0.01086 0.01140 0.01314
294.71367 0.01398 0.01262 0.01284 0.01312 0.01570
294.72319 0.01494 0.01558 0.01463 0.01177 0.01211
294.73276 0.01599 0.01147 0.01368 0.01220 0.01712
294.74231 0.01392 0.01256 0.01165 0.01444 0.01337
294.75186 0.01208 0.01128 0.01234 0.01146 0.01465
294.76139 0.01377 0.00869 0.01660 0.01342 0.01433
294.77094 0.00960 0.01021 0.01273 0.01013 0.01075
294.78050 0.01625 0.01205 0.01115 0.01590 0.01625
294.79003 0.01404 0.01324 0.01402 0.01229 0.01745
294.79958 0.01113 0.00745 0.01226 0.01081 0.01200
294.80914 0.01591 0.01252 0.01274 0.00872 0.01019
294.81866 0.01230 0.01409 0.01489 0.01311 0.01089
294.82821 0.01587 0.01593 0.01501 0.01522 0.01300
294.83778 0.01524 0.01501 0.01492 0.01372 0.01090
294.84730 0.01207 0.01386 0.01610 0.01145 0.01495
294.85685 0.01271 0.01247 0.01441 0.01152 0.01586
294.86641 0.01630 0.01296 0.01545 0.01228 0.01719
294.87593 0.01376 0.01466 0.01658 0.01284 0.01488
294.88549 0.01205 0.01238 0.01290 0.01341 0.01348
294.89505 0.01489 0.01355 0.01236 0.01372 0.01322
294.90457 0.01184 0.01360 0.01611 0.01178 0.01668
294.91413 0.01233 0.01352 0.01515 0.01340 0.01318
294.92368 0.01160 0.01630 0.01939 0.01703 0.01709
294.93320 0.01411 0.01676 0.01614 0.01317 0.01877
294.94277 0.01516 0.01491 0.01690 0.01190 0.01342
294.95229 0.01443 0.01599 0.01472 0.01612 0.01563
294.96184 0.01352 0.01181 0.01322 0.01201 0.01322
294.97140 0.01706 0.01626 0.01705 0.01584 0.01996
294.98092 0.01511 0.01259 0.01337 0.01247 0.01254
294.99048 0.01702 0.01798 0.01617 0.01438 0.01590
295.00001 0.01423 0.01486 0.01742 0.01331 0.01569
295.00956 0.01394 0.01665 0.01656 0.00985 0.01486
295.01909 0.01460 0.01671 0.01722 0.00990 0.01462
295.02864 0.01632 0.01871 0.01691 0.01885 0.01925
295.03819 0.01804 0.01552 0.01515 0.01366 0.01403
295.04773 0.01261 0.01611 0.01803 0.01397 0.01576
295.05728 0.01719 0.01583 0.01575 0.01287 0.01776
295.06680 0.01822 0.01712 0.02132 0.01444 0.01309
295.07636 0.01367 0.01772 0.01594 0.01419 0.01797
295.08588 0.01489 0.01524 0.01546 0.01455 0.01632
295.09544 0.02151 0.01988 0.02176 0.01718 0.01698
295.10497 0.01742 0.01693 0.01543 0.01283 0.01827
295.11452 0.02107 0.01605 0.02051 0.01760 0.01743
295.12405 0.01753 0.01364 0.01555 0.01266 0.01529
295.13360 0.01742 0.01380 0.01261 0.00889 0.01261
295.14312 0.01592 0.01343 0.01476 0.01756 0.01534
295.15269 0.02069 0.01963 0.02097 0.01976 0.01960
295.16221 0.02015 0.01621 0.02013 0.01435 0.01727
295.17176 0.01906 0.02140 0.01963 0.02012 0.02333
295.18129 0.01837 0.01615 0.02209 0.01804 0.01471
295.19084 0.01897 0.01559 0.02008 0.01518 0.01955
295.20037 0.02174 0.02294 0.02399 0.01713 0.02288
295.20993 0.01661 0.01525 0.01857 0.01429 0.01800
295.21945 0.02236 0.02298 0.02263 0.02257 0.01843
295.22901 0.01573 0.01975 0.02274 0.01621 0.02109
295.23853 0.01714 0.02066 0.01656 0.01593 0.01972
295.24805 0.02006 0.01759 0.02176 0.01746 0.02037
295.25761 0.01756 0.01934 0.02007 0.01775 0.01982
295.26714 0.01664 0.01700 0.01945 0.01801 0.02117
295.27670 0.01603 0.01748 0.01877 0.01456 0.01574
295.28622 0.02219 0.02089 0.02357 0.01906 0.02221
295.29577 0.02624 0.01969 0.02208 0.01619 0.02324
295.30530 0.01845 0.01907 0.02400 0.02085 0.02097
295.31482 0.02560 0.02126 0.02308 0.02162 0.02203
295.32438 0.01868 0.02130 0.02228 0.02281 0.01728
295.33391 0.01829 0.01782 0.02704 0.01710 0.02200
295.34346 0.02118 0.02012 0.02341 0.02137 0.02175
295.35298 0.02173 0.02350 0.01896 0.02221 0.02484
295.36251 0.01968 0.02116 0.02387 0.01796 0.02079
295.37206 0.02777 0.01972 0.02665 0.02234 0.02331
295.38160 0.02371 0.02186 0.02372 0.02278 0.02486
295.39112 0.02161 0.01997 0.02326 0.02151 0.02413
295.40067 0.02530 0.02149 0.02669 0.02099 0.02586
295.41020 0.02096 0.01991 0.02206 0.01976 0.02125
295.41972 0.02293 0.01906 0.02740 0.02028 0.02040
295.42927 0.02413 0.02084 0.02245 0.02346 0.02247
295.43881 0.02559 0.02253 0.02436 0.02150 0.02418
295.44833 0.02576 0.02076 0.02633 0.02454 0.02554
295.45789 0.02560 0.02201 0.02616 0.02071 0.02506
295.46741 0.02199 0.02664 0.02798 0.02163 0.02601
295.47693 0.02561 0.02371 0.02525 0.02490 0.02647
295.48649 0.02316 0.02324 0.02456 0.02194 0.02629
295.49602 0.02429 0.02499 0.02828 0.02476 0.02263
295.50554 0.02393 0.02292 0.02226 0.02385 0.02370
295.51510 0.02333 0.02398 0.02273 0.02213 0.02166
295.52462 0.02657 0.02664 0.02937 0.02368 0.02490
295.53414 0.02457 0.02662 0.02427 0.02224 0.02766
295.54367 0.02173 0.02383 0.02370 0.02363 0.02515
295.55323 0.02466 0.02733 0.02746 0.02457 0.03063
295.56276 0.02764 0.02690 0.02561 0.02527 0.02476
295.57228 0.02443 0.02250 0.02916 0.02484 0.02328
295.58183 0.02332 0.02738 0.02249 0.02578 0.02479
295.59136 0.02363 0.02230 0.02754 0.02126 0.02363
295.60088 0.02691 0.02671 0.02491 0.02369 0.02833
295.61041 0.03076 0.02605 0.03067 0.02776 0.02738
295.61997 0.02666 0.02449 0.02804 0.02455 0.02975
295.62949 0.02959 0.02859 0.02871 0.03033 0.03048
295.63901 0.02492 0.02670 0.02907 0.02759 0.02855
295.64854 0.02469 0.02731 0.02776 0.02544 0.02867
295.65806 0.02862 0.02535 0.02522 0.02878 0.03176
295.66763 0.02791 0.02741 0.03041 0.02583 0.02568
295.67715 0.02850 0.02892 0.02728 0.02753 0.02967
295.68667 0.03021 0.02752 0.03081 0.02497 0.02739
295.69620 0.02979 0.02563 0.03113 0.02768 0.02783
295.70572 0.02910 0.02954 0.03306 0.02649 0.02805
295.71527 0.02592 0.02776 0.03048 0.02583 0.02622
295.72480 0.03038 0.02860 0.03153 0.02741 0.03217
295.73433 0.03248 0.03117 0.03191 0.02925 0.03308
295.74386 0.02818 0.02880 0.03251 0.02967 0.02902
295.75338 0.03095 0.02716 0.02980 0.02863 0.02931
295.76290 0.03199 0.02954 0.02914 0.02735 0.03115
295.77246 0.03060 0.02847 0.03230 0.02541 0.02866
295.78198 0.03095 0.02595 0.03150 0.02860 0.02842
295.79151 0.02889 0.03040 0.02885 0.02709 0.02552
295.80104 0.02712 0.03142 0.02847 0.03057 0.03134
295.81056 0.02902 0.03110 0.03128 0.02860 0.03047
295.82008 0.02966 0.03147 0.03129 0.02980 0.02829
295.82961 0.03138 0.03010 0.03138 0.02624 0.03082
295.83916 0.02720 0.02619 0.03273 0.02905 0.02997
295.84869 0.03459 0.03308 0.02976 0.03026 0.03630
295.85822 0.02813 0.03524 0.03173 0.03385 0.03318
295.86774 0.03010 0.03133 0.03201 0.02803 0.03454
295.87727 0.03663 0.03083 0.03458 0.03171 0.03408
295.88679 0.03203 0.03162 0.03143 0.03110 0.03147
295.89631 0.03110 0.02900 0.03495 0.02823 0.03447
295.90584 0.03047 0.03229 0.03353 0.03115 0.03355
295.91537 0.03398 0.03270 0.03306 0.03047 0.03793
295.92490 0.03585 0.02980 0.03526 0.03433 0.03312
295.93442 0.03230 0.03216 0.03259 0.02943 0.03290
295.94394 0.03349 0.03477 0.03651 0.03191 0.03491
295.95350 0.03468 0.03537 0.03522 0.03176 0.03471
295.96302 0.02918 0.03186 0.03340 0.02936 0.03429
295.97254 0.03541 0.03068 0.03591 0.03101 0.03714
295.98208 0.03124 0.03335 0.03344 0.02938 0.03664
295.99160 0.03314 0.03301 0.03312 0.03072 0.03403
296.00112 0.03564 0.02980 0.03367 0.03381 0.03170
296.01065 0.03487 0.03556 0.03741 0.03143 0.03407
296.02017 0.03525 0.03286 0.03467 0.03172 0.03836
296.02970 0.03424 0.03609 0.03450 0.03045 0.03315
296.03923 0.03230 0.03546 0.03808 0.03296 0.03567
296.04875 0.03474 0.03569 0.03969 0.03404 0.03533
296.05828 0.03424 0.03013 0.03729 0.03240 0.03933
296.06780 0.03398 0.03016 0.03617 0.03329 0.03682
296.07732 0.03629 0.03416 0.03483 0.03553 0.03321
296.08685 0.03757 0.03739 0.03969 0.03543 0.03981
296.09637 0.03772 0.03505 0.03876 0.03695 0.03689
296.10591 0.03750 0.03712 0.03583 0.03599 0.03952
296.11543 0.03913 0.03618 0.03716 0.03346 0.03717
296.12495 0.04048 0.03981 0.04207 0.03890 0.04160
296.13448 0.03398 0.03910 0.04114 0.03439 0.03507
296.14397 0.03723 0.03238 0.03720 0.03568 0.03473
296.15349 0.03781 0.03629 0.04032 0.03739 0.03590
296.16302 0.03742 0.03592 0.03800 0.03729 0.03721
296.17255 0.03777 0.03787 0.04162 0.03423 0.03804
296.18207 0.03984 0.03835 0.03733 0.03637 0.03766
296.19160 0.03999 0.03670 0.04051 0.03391 0.03829
296.20112 0.03943 0.03810 0.04160 0.03923 0.03969
296.21065 0.04000 0.03827 0.03947 0.03878 0.04179
296.22017 0.03843 0.03799 0.03950 0.03653 0.03985
296.22969 0.04100 0.03639 0.04523 0.04198 0.03819
296.23923 0.03972 0.03992 0.04301 0.04151 0.04389
296.24875 0.04252 0.04162 0.03946 0.03952 0.04145
296.25824 0.04040 0.03830 0.04102 0.04141 0.04216
296.26777 0.04178 0.04064 0.04028 0.03438 0.04209
296.27729 0.04533 0.04215 0.03970 0.03986 0.04425
296.28682 0.04085 0.03818 0.04255 0.03933 0.04368
296.29634 0.04084 0.04237 0.04499 0.03930 0.04366
296.30587 0.04023 0.04039 0.04304 0.03469 0.04338
296.31540 0.04130 0.04118 0.04290 0.04050 0.04193
296.32492 0.04426 0.04532 0.04583 0.04461 0.04848
296.33441 0.04354 0.03999 0.04097 0.04137 0.04610
296.34394 0.04615 0.04345 0.04349 0.04672 0.04591
296.35346 0.04804 0.04543 0.04549 0.04194 0.04352
296.36298 0.04093 0.04339 0.04317 0.03823 0.04121
296.37252 0.04455 0.04193 0.04709 0.03932 0.04521
296.38201 0.04398 0.04022 0.04113 0.04244 0.04125
296.39154 0.04124 0.04253 0.03951 0.04024 0.04603
296.40106 0.04163 0.04273 0.04434 0.03948 0.04196
296.41058 0.04689 0.04231 0.04767 0.04332 0.04856
296.42011 0.04533 0.04072 0.04164 0.04346 0.04395
296.42960 0.04238 0.04288 0.04887 0.04227 0.04190
296.43912 0.04709 0.04594 0.04880 0.04108 0.04575
296.44866 0.04554 0.04395 0.04714 0.04140 0.04466
296.45818 0.04683 0.04511 0.04629 0.04900 0.04728
296.46771 0.04786 0.05028 0.04951 0.04822 0.04900
296.47720 0.04612 0.04602 0.04858 0.04625 0.04203
296.48672 0.04625 0.04309 0.04901 0.04413 0.04634
296.49625 0.04371 0.04298 0.04365 0.04181 0.04484
296.50577 0.04841 0.04478 0.04841 0.04246 0.04706
296.51527 0.05081 0.04945 0.04841 0.04879 0.04978
296.52480 0.05074 0.04486 0.05126 0.04587 0.04939
296.53432 0.04753 0.04553 0.04784 0.04649 0.04980
296.54384 0.04412 0.04376 0.04959 0.04533 0.04774
296.55334 0.05017 0.04842 0.05175 0.04803 0.04992
296.56286 0.04746 0.04994 0.05056 0.04813 0.05279
296.57239 0.04946 0.04888 0.04752 0.04548 0.05095
296.58189 0.04965 0.04737 0.05186 0.04997 0.04529
296.59141 0.05447 0.04683 0.05085 0.04953 0.05148
296.60094 0.04928 0.05225 0.05335 0.04734 0.05215
296.61043 0.05147 0.05044 0.05235 0.05129 0.05351
296.61995 0.04633 0.04785 0.05160 0.04414 0.05159
296.62948 0.05038 0.04813 0.04818 0.04604 0.04793
296.63900 0.05129 0.04849 0.05545 0.05032 0.04997
296.64850 0.04903 0.04806 0.05282 0.04799 0.05326
296.65803 0.05294 0.05124 0.05457 0.05106 0.05330
296.66755 0.05499 0.05351 0.05768 0.05083 0.05138
296.67705 0.05582 0.04817 0.05269 0.05107 0.05157
296.68657 0.05109 0.04445 0.05231 0.04890 0.05054
296.69606 0.05331 0.04772 0.05076 0.04897 0.05469
296.70559 0.05162 0.05104 0.05431 0.05195 0.05578
296.71511 0.05316 0.05226 0.05670 0.04989 0.05234
296.72461 0.05483 0.05193 0.05612 0.05171 0.05202
296.73414 0.05482 0.04981 0.05395 0.05043 0.05232
296.74366 0.05531 0.05442 0.05640 0.05293 0.05710
296.75316 0.05724 0.05608 0.05828 0.04999 0.05837
296.76268 0.05925 0.05442 0.05830 0.05349 0.05706
296.77217 0.05615 0.05080 0.05355 0.05316 0.05339
296.78170 0.05765 0.05905 0.05746 0.05517 0.05487
296.79122 0.05634 0.05569 0.05986 0.05380 0.05909
296.80072 0.05608 0.05578 0.05896 0.05650 0.06031
296.81025 0.05344 0.05876 0.05977 0.05601 0.05820
296.81974 0.05910 0.05590 0.05873 0.05611 0.05638
296.82927 0.05564 0.05832 0.05888 0.05435 0.05816
296.83876 0.06141 0.05662 0.06047 0.05785 0.06007
296.84828 0.05827 0.05601 0.05901 0.05579 0.06385
296.85781 0.06040 0.05811 0.06516 0.05730 0.05844
296.86730 0.06002 0.05545 0.06568 0.05559 0.05981
296.87683 0.05344 0.05031 0.06456 0.05130 0.05895
296.88633 0.05961 0.06128 0.06639 0.05932 0.06470
296.89585 0.06084 0.06037 0.06614 0.05951 0.06290
296.90535 0.06022 0.06179 0.06402 0.05903 0.06407
296.91487 0.06510 0.05975 0.06651 0.05814 0.06181
296.92436 0.06581 0.06403 0.06453 0.05785 0.06544
296.93389 0.06901 0.06457 0.06971 0.06027 0.06638
296.94338 0.06769 0.06344 0.06852 0.06093 0.06685
296.95291 0.06182 0.06296 0.06901 0.05572 0.06745
296.96241 0.05920 0.06267 0.06876 0.05949 0.06430
296.97193 0.06690 0.06429 0.06724 0.06509 0.06937
296.98142 0.06849 0.06198 0.07033 0.06288 0.07110
296.99095 0.06931 0.06414 0.07003 0.06316 0.06898
297.00044 0.06400 0.05837 0.06562 0.06286 0.06564
297.00997 0.06847 0.06078 0.07089 0.06281 0.07057
297.01946 0.06892 0.06465 0.07022 0.06581 0.06755
297.02898 0.06616 0.06988 0.07410 0.06659 0.07155
297.03849 0.06640 0.07243 0.07220 0.06420 0.06853
297.04798 0.06961 0.06925 0.07419 0.06539 0.07036
297.05750 0.06980 0.06438 0.07204 0.06385 0.07163
297.06700 0.06978 0.06926 0.07852 0.06674 0.07212
297.07652 0.07144 0.06963 0.07702 0.06679 0.07634
297.08602 0.07351 0.06696 0.07623 0.06501 0.07168
297.09554 0.07477 0.06780 0.07586 0.07096 0.07486
297.10503 0.07356 0.07253 0.07603 0.06978 0.07222
297.11454 0.07476 0.07654 0.08318 0.07079 0.07972
297.12406 0.06878 0.07764 0.07905 0.06651 0.07382
297.13355 0.07233 0.07373 0.08328 0.06979 0.07679
297.14308 0.07428 0.06963 0.07975 0.07102 0.07600
297.15257 0.07770 0.07767 0.08404 0.07601 0.07928
297.16206 0.07842 0.07507 0.07884 0.07263 0.08025
297.17159 0.08175 0.07778 0.08052 0.07175 0.07924
297.18108 0.08159 0.07426 0.08370 0.07311 0.07968
297.19058 0.08056 0.07912 0.08402 0.07541 0.08566
297.20011 0.07889 0.07625 0.07957 0.07457 0.08380
297.20960 0.07958 0.07484 0.08677 0.07247 0.08327
297.21913 0.07685 0.07774 0.08762 0.07919 0.08718
297.22862 0.08405 0.07709 0.08822 0.07366 0.08195
297.23811 0.08263 0.08193 0.08979 0.07833 0.08571
297.24764 0.08742 0.07832 0.08955 0.07830 0.08659
297.25713 0.09036 0.07888 0.09328 0.07715 0.08526
297.26663 0.08383 0.08279 0.09633 0.08022 0.08791
297.27616 0.08542 0.08391 0.09355 0.08149 0.08674
297.28565 0.08485 0.08510 0.09999 0.08525 0.09283
297.29515 0.08580 0.08318 0.09076 0.08162 0.09273
297.30464 0.09309 0.08739 0.09349 0.08747 0.09117
297.31416 0.09137 0.08624 0.09846 0.08476 0.09062
297.32366 0.09381 0.08597 0.09702 0.08286 0.09277
297.33315 0.09331 0.09100 0.09934 0.08673 0.09596
297.34268 0.09655 0.08616 0.10520 0.08536 0.09561
297.35217 0.09363 0.09113 0.10194 0.08625 0.09885
297.36167 0.09663 0.09017 0.10367 0.08943 0.09723
297.37117 0.09151 0.09187 0.10136 0.09111 0.10109
297.38069 0.09494 0.09424 0.10673 0.09283 0.10055
297.39018 0.09453 0.09549 0.10763 0.08942 0.09976
297.39968 0.10220 0.09486 0.10736 0.09291 0.10034
297.40917 0.09928 0.09337 0.10654 0.09412 0.10459
297.41869 0.10494 0.09946 0.10952 0.09449 0.10511
297.42819 0.10518 0.11971 0.10995 0.09325 0.10566
297.43768 0.10359 0.09827 0.10925 0.09209 0.10662
297.44718 0.10399 0.10326 0.11685 0.09648 0.11193
297.45671 0.10321 0.10236 0.11800 0.09713 0.11350
297.46620 0.09767 0.10428 0.11568 0.09542 0.10924
297.47570 0.10556 0.10257 0.11929 0.09827 0.10854
297.48519 0.11185 0.10696 0.12534 0.10247 0.11571
297.49468 0.11288 0.10902 0.12003 0.10056 0.11153
297.50418 0.11170 0.10741 0.12538 0.09929 0.11238
297.51370 0.11344 0.10552 0.12226 0.10042 0.11122
297.52320 0.11165 0.10798 0.13035 0.10285 0.11776
297.53269 0.10663 0.10652 0.12724 0.10257 0.11736
297.54219 0.11477 0.11245 0.13100 0.10349 0.12053
297.55169 0.12002 0.11169 0.13235 0.10971 0.12410
297.56121 0.12136 0.11438 0.12809 0.10767 0.12395
297.57070 0.12462 0.11384 0.13781 0.11245 0.12211
297.58020 0.12357 0.11499 0.13775 0.11192 0.12468
297.58969 0.12633 0.12061 0.13538 0.11566 0.12881
297.59918 0.12542 0.14256 0.13632 0.11173 0.13124
297.60868 0.12420 0.11946 0.14135 0.11490 0.13365
297.61817 0.12484 0.12414 0.14075 0.11499 0.13399
297.62767 0.12674 0.12864 0.14692 0.11825 0.13643
297.63720 0.12499 0.12463 0.14655 0.11811 0.13921
297.64669 0.13392 0.12598 0.15066 0.11886 0.13891
297.65619 0.14084 0.13057 0.15030 0.11792 0.13617
297.66568 0.13773 0.12383 0.14926 0.12511 0.13809
297.67517 0.14373 0.13164 0.15508 0.12435 0.14351
297.68467 0.14051 0.13317 0.15419 0.12584 0.14446
297.69416 0.14246 0.13384 0.15825 0.12716 0.14821
297.70366 0.13647 0.13593 0.16370 0.13244 0.14870
297.71315 0.14306 0.13415 0.16556 0.13473 0.15045
297.72264 0.14732 0.14106 0.16452 0.13575 0.15418
297.73215 0.15079 0.14090 0.16505 0.13011 0.15776
297.74164 0.15481 0.14495 0.17302 0.13802 0.15770
297.75113 0.15714 0.14381 0.16957 0.13711 0.15688
297.76066 0.15825 0.14422 0.17703 0.13801 0.16058
297.77015 0.15688 0.14630 0.17719 0.14174 0.16099
297.77965 0.15583 0.15514 0.18192 0.14744 0.16478
297.78914 0.15508 0.15553 0.18137 0.14441 0.16338
297.79863 0.16240 0.15584 0.18425 0.14863 0.16919
297.80813 0.15933 0.15355 0.18883 0.14855 0.17116
297.81763 0.17186 0.16009 0.19440 0.15337 0.17925
297.82712 0.17659 0.16313 0.19707 0.15764 0.17907
297.83662 0.17734 0.16317 0.19714 0.15533 0.18059
297.84611 0.17638 0.16559 0.19896 0.15103 0.18025
297.85560 0.17618 0.16614 0.20323 0.16548 0.18661
297.86510 0.17310 0.16651 0.20271 0.15744 0.18282
297.87459 0.17566 0.17262 0.20864 0.16484 0.18991
297.88409 0.18165 0.17009 0.20721 0.16393 0.19198
297.89358 0.18101 0.17522 0.21579 0.16703 0.19486
297.90307 0.19261 0.17573 0.22189 0.17167 0.19635
297.91254 0.20173 0.17928 0.22548 0.17170 0.20070
297.92204 0.19972 0.17873 0.22161 0.17541 0.20386
297.93153 0.19550 0.18469 0.22697 0.17598 0.20558
297.94103 0.20079 0.18084 0.23758 0.17728 0.21151
297.95052 0.19847 0.19692 0.23854 0.18241 0.21141
297.96002 0.20044 0.19493 0.23901 0.18562 0.21712
297.96951 0.20962 0.20004 0.24411 0.18608 0.22199
297.97900 0.21459 0.19820 0.24817 0.18895 0.22357
297.98850 0.22166 0.20355 0.25673 0.19141 0.22593
297.99799 0.22720 0.20384 0.25800 0.19322 0.23445
298.00748 0.22989 0.21130 0.26195 0.19823 0.23415
298.01698 0.22957 0.21340 0.26510 0.20161 0.23413
298.02648 0.22767 0.21817 0.27551 0.19936 0.24099
298.03595 0.23108 0.22154 0.27445 0.21034 0.24375
298.04544 0.23322 0.21775 0.28282 0.20684 0.24859
298.05493 0.23958 0.22484 0.28861 0.21026 0.25422
298.06443 0.24734 0.22609 0.29088 0.21668 0.26141
298.07392 0.25622 0.23193 0.29628 0.21472 0.26628
298.08341 0.26184 0.23643 0.30171 0.22344 0.26321
298.09291 0.26116 0.24165 0.30444 0.22788 0.27561
298.10237 0.26644 0.24235 0.31314 0.23241 0.27709
298.11186 0.26170 0.24937 0.31564 0.22566 0.27717
298.12136 0.26584 0.24575 0.31816 0.22988 0.28445
298.13086 0.27097 0.25008 0.32384 0.24058 0.29126
298.14036 0.27598 0.26181 0.32910 0.24415 0.29615
298.14985 0.28745 0.26383 0.34253 0.24867 0.30255
298.15931 0.30013 0.27258 0.35083 0.25506 0.30990
298.16881 0.30443 0.27926 0.35563 0.25687 0.30792
298.17830 0.31051 0.28131 0.36646 0.26758 0.32701
298.18779 0.30668 0.28445 0.37370 0.26224 0.32734
298.19729 0.31085 0.28531 0.37714 0.27622 0.32761
298.20675 0.31292 0.29584 0.38173 0.27653 0.33669
298.21625 0.31927 0.29994 0.39761 0.28364 0.34614
298.22574 0.33086 0.30612 0.40154 0.28807 0.35135
298.23523 0.34507 0.30835 0.40945 0.28999 0.35576
298.24474 0.34986 0.32028 0.41503 0.29864 0.36337
298.25420 0.35873 0.32463 0.42635 0.30135 0.36793
298.26369 0.35676 0.32567 0.43478 0.31117 0.37805
298.27319 0.35927 0.33091 0.44265 0.31166 0.38824
298.28268 0.36174 0.33714 0.45436 0.31544 0.38291
298.29214 0.36779 0.34320 0.45520 0.31747 0.39823
298.30164 0.37918 0.35210 0.46727 0.32891 0.40624
298.31113 0.39303 0.35644 0.47647 0.33413 0.41685
298.32060 0.40808 0.36404 0.49081 0.34010 0.42384
298.33009 0.41535 0.36814 0.49479 0.34238 0.43034
298.33958 0.42615 0.37918 0.51204 0.35415 0.43907
298.34909 0.42513 0.38172 0.51327 0.35721 0.44727
298.35855 0.42169 0.39609 0.52651 0.37229 0.45707
298.36804 0.43141 0.40563 0.53999 0.37838 0.46263
298.37754 0.43475 0.41015 0.55294 0.38469 0.48319
298.38700 0.45275 0.41834 0.56613 0.38777 0.48777
298.39650 0.47847 0.43245 0.58301 0.39937 0.49801
298.40599 0.49535 0.43297 0.59621 0.41015 0.50874
298.41545 0.50387 0.43859 0.60318 0.40811 0.51617
298.42495 0.50811 0.44927 0.61950 0.41519 0.52605
298.43444 0.50519 0.45835 0.62759 0.42415 0.53529
298.44390 0.51917 0.46753 0.64290 0.42786 0.54871
298.45340 0.51655 0.47885 0.66486 0.43850 0.55953
298.46289 0.53033 0.49088 0.67527 0.45884 0.56964
298.47237 0.54843 0.50067 0.70116 0.45967 0.58517
298.48186 0.57516 0.51031 0.71405 0.46736 0.60578
298.49135 0.59185 0.52330 0.72744 0.48462 0.61460
298.50082 0.59864 0.52960 0.74159 0.49227 0.62729
298.51031 0.61578 0.54094 0.75913 0.50414 0.64169
298.51977 0.61107 0.55128 0.78205 0.50686 0.65561
298.52927 0.61983 0.56989 0.79382 0.51768 0.66958
298.53876 0.62661 0.57389 0.81899 0.53139 0.68927
298.54823 0.64325 0.58699 0.83972 0.54088 0.70572
298.55772 0.67039 0.59713 0.85739 0.55769 0.71988
298.56718 0.69562 0.61300 0.87991 0.57147 0.73478
298.57668 0.72272 0.62918 0.89768 0.58124 0.74789
298.58617 0.74659 0.63324 0.92620 0.58985 0.77468
298.59564 0.74895 0.65345 0.95369 0.60525 0.78933
298.60514 0.75006 0.67120 0.97154 0.61226 0.80551
298.61460 0.75971 0.68801 0.99828 0.62858 0.82485
298.62409 0.76874 0.70368 1.03236 0.64660 0.85305
298.63356 0.78728 0.72293 1.04967 0.66128 0.87422
298.64305 0.83180 0.74112 1.07849 0.67228 0.89776
298.65252 0.86611 0.75515 1.11256 0.68778 0.91785
298.66201 0.89899 0.77832 1.13456 0.70349 0.94057
298.67147 0.91642 0.78569 1.16328 0.71582 0.95978
298.68097 0.93057 0.80050 1.20335 0.73888 0.97569
298.69043 0.92875 0.82565 1.23367 0.75979 1.00393
298.69992 0.94456 0.84788 1.26043 0.77086 1.04016
298.70939 0.96298 0.87829 1.30849 0.79439 1.06530
298.71888 0.99366 0.88736 1.33820 0.80781 1.09455
298.72835 1.04266 0.91867 1.37462 0.83110 1.11832
298.73785 1.08514 0.93540 1.40067 0.84883 1.15033
298.74731 1.11968 0.95604 1.44870 0.87368 1.17540
298.75681 1.14778 0.98226 1.49585 0.88945 1.20576
298.76627 1.15482 0.99665 1.52532 0.90818 1.23984
298.77576 1.17813 1.03277 1.56575 0.93691 1.27258
298.78523 1.18469 1.05797 1.62434 0.95628 1.31095
298.79472 1.21320 1.08124 1.66965 0.97753 1.34981
298.80419 1.26189 1.11948 1.72579 1.01631 1.38633
298.81368 1.32311 1.13533 1.77351 1.02793 1.42579
298.82314 1.38808 1.16916 1.82763 1.06006 1.45375
298.83261 1.43429 1.19743 1.87956 1.09589 1.50719
298.84210 1.46343 1.23322 1.94638 1.11052 1.53961
298.85156 1.47675 1.26775 1.99953 1.14167 1.59960
298.86106 1.48963 1.31283 2.05419 1.17588 1.63495
298.87053 1.52424 1.34066 2.11387 1.20214 1.68720
298.88002 1.56719 1.38280 2.18193 1.23134 1.72731
298.88949 1.62665 1.41711 2.24979 1.27096 1.79510
298.89895 1.70371 1.45500 2.33121 1.29859 1.84878
298.90845 1.78272 1.49508 2.38846 1.34279 1.90123
298.91791 1.84324 1.53332 2.48008 1.38253 1.94079
298.92737 1.88234 1.58010 2.54654 1.41477 2.00758
298.93687 1.91851 1.63129 2.64659 1.45520 2.07131
298.94633 1.93227 1.67766 2.70971 1.50274 2.14376
298.95582 1.97261 1.72680 2.81672 1.54898 2.20684
298.96529 2.03819 1.77713 2.90977 1.58243 2.27635
298.97475 2.12894 1.83442 3.00715 1.63040 2.35314
298.98425 2.23638 1.87632 3.08241 1.67537 2.40948
298.99371 2.33778 1.93016 3.19860 1.72277 2.49467
299.00317 2.40529 1.98292 3.30765 1.77244 2.57119
299.01268 2.46256 2.05727 3.44083 1.82657 2.66711
299.02214 2.51241 2.11538 3.52868 1.87711 2.74700
299.03160 2.55431 2.17687 3.66862 1.93483 2.83687
299.04110 2.59628 2.24830 3.76584 2.00394 2.92166
299.05056 2.69941 2.30737 3.90372 2.05044 3.02221
299.06003 2.81904 2.38782 4.03127 2.11759 3.11938
299.06949 2.98975 2.47200 4.20623 2.18499 3.22648
299.07898 3.10916 2.54231 4.33977 2.25657 3.32942
299.08845 3.21679 2.61269 4.49103 2.30592 3.45865
299.09791 3.26588 2.70133 4.64443 2.39018 3.56727
299.10740 3.31482 2.78719 4.81429 2.45840 3.68353
299.11687 3.37496 2.88490 4.97615 2.55257 3.79298
299.12633 3.50076 2.98433 5.17632 2.62107 3.95310
299.13579 3.64960 3.07068 5.34802 2.71142 4.07953
299.14529 3.84678 3.18262 5.55091 2.79278 4.21487
299.15475 4.01681 3.27224 5.73609 2.88273 4.36693
299.16422 4.20750 3.39511 5.96009 2.96997 4.52926
299.17368 4.34400 3.49734 6.16029 3.07993 4.65973
299.18318 4.41633 3.61817 6.40887 3.17722 4.84199
299.19265 4.49513 3.74995 6.63617 3.29817 5.03476
299.20211 4.60508 3.87970 6.89249 3.38628 5.19854
299.21157 4.76569 4.01467 7.15261 3.51875 5.37005
299.22104 4.99562 4.14517 7.40862 3.61696 5.61094
299.23053 5.25267 4.29322 7.68481 3.75286 5.78893
299.24000 5.51518 4.42727 7.96312 3.85921 5.96322
299.24946 5.76041 4.58809 8.24849 4.01867 6.19658
299.25892 5.94417 4.76195 8.62109 4.15145 6.43045
299.26839 6.04253 4.90903 8.89165 4.30346 6.67593
299.27785 6.15689 5.11229 9.23697 4.45763 6.93163
299.28734 6.30489 5.25654 9.55413 4.59372 7.15554
299.29681 6.58941 5.46884 9.91226 4.75301 7.45339
299.30627 6.90874 5.67332 10.29169 4.93058 7.68459
299.31574 7.29126 5.85044 10.67096 5.09807 8.02337
299.32520 7.67316 6.09598 11.07228 5.28556 8.27936
299.33466 7.98268 6.30722 11.46450 5.46881 8.60613
299.34416 8.16245 6.52979 11.92362 5.66705 8.93395
299.35363 8.35083 6.77554 12.34249 5.86811 9.28783
299.36309 8.52135 7.02031 12.78835 6.07525 9.60653
299.37256 8.77737 7.28196 13.20788 6.30409 9.96446
299.38202 9.18018 7.57003 13.72390 6.52862 10.32436
299.39149 9.68549 7.84968 14.14598 6.79088 10.74367
299.40095 10.16400 8.10211 14.66245 7.01595 11.08316
299.41041 10.65973 8.42698 15.15568 7.28915 11.52702
299.41988 11.01679 8.76150 15.72588 7.56057 11.93444
299.42934 11.32785 9.05073 16.25071 7.81978 12.37715
299.43883 11.56184 9.40488 16.75576 8.12285 12.80173
299.44830 11.82381 9.73641 17.28086 8.41566 13.29923
299.45776 12.23357 10.10668 17.83152 8.75310 13.74113
299.46722 12.75447 10.49838 18.40126 9.08029 14.20638
299.47669 13.42849 10.85881 18.97543 9.36507 14.68658
299.48615 14.06819 11.21603 19.49067 9.73929 15.22955
299.49562 14.68202 11.67054 20.05799 10.09115 15.71764
299.50508 15.05391 12.09217 20.56926 10.44351 16.26335
299.51454 15.34434 12.56053 21.18902 10.85833 16.75875
299.52401 15.62582 12.98928 21.70011 11.25547 17.32362
299.53347 16.11545 13.45283 22.29381 11.69186 17.87131
299.54293 16.62068 13.90833 22.74396 12.06610 18.39500
299.55241 17.34683 14.39891 23.41236 12.52225 19.02910
299.56187 18.14602 14.91650 23.82150 12.96060 19.51473
299.57134 18.83878 15.44843 24.43892 13.43861 20.06835
299.58080 19.42290 15.91305 24.89020 13.87918 20.62287
299.59026 19.81025 16.44448 25.40367 14.37910 21.18736
299.59973 20.18503 17.01546 25.84600 14.85853 21.71384
299.60919 20.53910 17.51469 26.31847 15.37714 22.31080
299.61865 21.03352 18.10439 26.74202 15.85179 22.85871
299.62812 21.70494 18.67865 27.16604 16.42160 23.45929
299.63758 22.46959 19.23129 27.50368 16.96405 23.93114
299.64705 23.15783 19.77000 27.97730 17.48716 24.43246
299.65651 23.78316 20.32199 28.28712 18.03027 24.91062
299.66597 24.29404 20.89391 28.66477 18.55085 25.40370
299.67544 24.62944 21.52711 28.93827 19.15352 25.97841
299.68490 24.93224 22.05524 29.24650 19.70806 26.39731
299.69436 25.30119 22.59382 29.51929 20.23616 26.79277
299.70383 25.81072 23.09445 29.77046 20.78631 27.24480
299.71326 26.41624 23.65994 30.10587 21.36264 27.65367
299.72273 27.06957 24.22362 30.25562 21.98176 27.97730
299.73219 27.57336 24.76022 30.47199 22.48327 28.38053
299.74165 27.99904 25.24761 30.73980 23.01120 28.80974
299.75112 28.24731 25.78088 30.78399 23.51958 29.03922
299.76058 28.47788 26.19533 31.05273 24.03375 29.38681
299.77005 28.68448 26.71865 31.10666 24.64334 29.63370
299.77952 29.03598 27.10531 31.23894 25.04003 29.90988
299.78898 29.37010 27.54901 31.33923 25.51596 30.19322
299.79841 29.78183 27.92415 31.50154 26.00189 30.40621
299.80788 30.07375 28.37409 31.51909 26.50379 30.62693
299.81734 30.38416 28.73397 31.63136 26.88566 30.86568
299.82681 30.58845 29.05296 31.72642 27.35716 30.97848
299.83627 30.71768 29.46805 31.71394 27.71150 31.06044
299.84573 30.83225 29.75223 31.82124 28.10235 31.23501
299.85520 30.99709 30.02592 31.85796 28.43321 31.40067
299.86463 31.18842 30.29369 31.81847 28.80323 31.48582
299.87409 31.36399 30.57740 31.89841 29.15838 31.63975
299.88356 31.51635 30.80407 31.92301 29.45751 31.75424
299.89302 31.48897 30.85362 31.68167 29.57780 31.61562
299.90249 31.47576 31.01553 31.64067 29.86198 31.62113
299.91192 31.92838 31.52583 32.14268 30.36744 32.14623
299.92138 31.75585 31.50004 31.94562 30.44100 31.95099
299.93085 31.90188 31.68507 31.99420 30.66013 32.03987
299.94031 31.91342 31.72434 31.87243 30.80731 31.98036
299.94977 32.09372 31.99761 31.97359 31.03681 32.07359
299.95921 32.18237 32.06069 31.91419 31.17586 32.11879
299.96867 32.15431 32.18554 31.91486 31.33638 32.16315
299.97814 32.10755 32.10692 31.83010 31.44831 32.18052
299.98760 32.07322 32.28523 31.86142 31.58686 32.20337
299.99703 32.00860 32.24682 31.74832 31.58585 32.07012
300.00650 32.08988 32.36598 31.74746 31.72722 32.12234
300.01596 32.10154 32.38757 31.64654 31.70885 32.09031
300.02542 32.24297 32.46326 31.68072 31.86910 32.14324
300.03486 32.14579 32.38865 31.57540 31.78861 32.08397
300.04433 32.29643 32.46856 31.64502 31.95507 32.08130
300.05380 32.22886 32.46711 31.56681 32.02201 32.09129
300.06326 32.16376 32.52270 31.47232 32.02273 32.06723
300.07269 31.97190 32.46814 31.40090 32.02947 31.95798
300.08216 31.96871 32.53074 31.37077 32.03324 32.00207
300.09162 31.99032 32.55874 31.28202 32.10356 31.99441
300.10105 32.04511 32.49891 31.10010 32.06446 31.92672
300.11052 32.10344 32.49663 31.03296 32.01256 31.82967
300.11998 32.16234 32.49434 30.93783 32.08059 31.88334
300.12942 32.00715 32.42646 30.75385 32.00021 31.71146
300.13888 31.98647 32.42347 30.57697 32.00601 31.72348
300.14834 31.75326 32.30637 30.43603 31.99040 31.62019
300.15778 31.69668 32.42666 30.31714 32.01233 31.59978
300.16724 31.53759 32.32852 30.11741 32.02095 31.53913
300.17670 31.49630 32.23250 29.85391 31.91611 31.34687
300.18614 31.64391 32.31396 29.70479 32.05089 31.36183
300.19560 31.45550 32.10633 29.34527 31.85211 31.05671
300.20506 31.55014 32.20144 29.08813 31.87866 30.97588
300.21450 31.47475 32.15064 28.91948 31.83102 30.88645
300.22396 31.31330 32.03971 28.59780 31.82347 30.80871
300.23340 31.04676 31.91843 28.25072 31.70059 30.56726
300.24286 30.85594 31.97074 27.91462 31.80713 30.45194
300.25232 30.51126 31.72887 27.51239 31.56821 30.18594
300.26176 30.48806 31.84760 27.14466 31.66241 30.03099
300.27122 30.35205 31.67069 26.68730 31.56516 29.77571
300.28065 30.22303 31.51518 26.28812 31.43259 29.48562
300.29012 30.24182 31.46206 25.76821 31.45146 29.25911
300.29958 30.00171 31.27618 25.35919 31.32171 28.95046
300.30902 29.71815 31.15072 24.85088 31.32432 28.67566
300.31848 29.24548 30.94240 24.39781 31.07395 28.37930
300.32791 28.76520 30.81583 23.87974 31.05221 27.94971
300.33738 28.31637 30.61006 23.37561 30.88791 27.57224
300.34681 28.00489 30.41682 22.78038 30.72292 27.18075
300.35627 27.81918 30.17020 22.23817 30.61535 26.79189
300.36571 27.60643 29.87918 21.69801 30.38195 26.38279
300.37517 27.38178 29.70622 21.17662 30.18210 25.89055
300.38464 27.06956 29.38251 20.58562 30.04854 25.36956
300.39407 26.46023 29.05070 20.01578 29.78927 24.91924
300.40353 25.82083 28.69625 19.49698 29.54162 24.47615
300.41297 25.14788 28.42766 18.91431 29.31933 23.90389
300.42244 24.54305 28.02053 18.33638 29.04731 23.40953
300.43187 24.12918 27.60474 17.75778 28.73869 22.87957
300.44134 23.79119 27.18803 17.22284 28.43046 22.31744
300.45077 23.47952 26.79103 16.62867 28.05912 21.72641
300.46021 23.05592 26.34942 16.01125 27.74272 21.15688
300.46967 22.59669 25.88561 15.58115 27.36402 20.67670
300.47910 21.76843 25.34291 14.97010 26.87299 20.00593
300.48857 21.02920 24.89971 14.48318 26.52710 19.49624
300.49800 20.26732 24.39958 13.97098 26.03551 18.94913
300.50746 19.60586 23.87093 13.44154 25.54959 18.35458
300.51690 19.17116 23.27453 12.96053 25.11629 17.76241
300.52636 18.76748 22.69701 12.46601 24.65592 17.21613
300.53580 18.44313 22.14731 12.02647 24.13617 16.65147
300.54526 17.98550 21.55348 11.57078 23.54106 16.07665
300.55469 17.45949 21.07780 11.11717 23.10474 15.59031
300.56413 16.70936 20.44253 10.68497 22.52161 15.01164
300.57359 15.96856 19.90045 10.32673 22.04607 14.51586
300.58302 15.19139 19.31913 9.91166 21.39731 13.94839
300.59249 14.59807 18.70191 9.49982 20.89492 13.46634
300.60192 14.21912 18.14498 9.13362 20.29124 13.00475
300.61135 13.89258 17.54399 8.79366 19.73093 12.51446
300.62082 13.63695 16.99912 8.45279 19.20313 12.08880
300.63025 13.20614 16.46116 8.12818 18.60349 11.61215
300.63972 12.70365 15.92283 7.78332 18.05438 11.15625
300.64915 12.04197 15.34539 7.49528 17.49949 10.76035
300.65858 11.41989 14.85354 7.21851 16.96055 10.35731
300.66805 10.82230 14.22800 6.89904 16.30520 9.91288
300.67748 10.44200 13.83402 6.66017 15.80026 9.57538
300.68691 10.16498 13.34438 6.40304 15.34739 9.21468
300.69638 9.89666 12.76570 6.11821 14.72844 8.82055
300.70581 9.71610 12.38419 5.92975 14.31899 8.53806
300.71525 9.35706 11.84286 5.65312 13.70314 8.14714
300.72471 8.93986 11.42942 5.46651 13.26214 7.83790
300.73414 8.51737 10.99897 5.24540 12.77746 7.57143
300.74358 7.95908 10.55680 5.02813 12.24265 7.22724
300.75304 7.62098 10.20085 4.85634 11.84449 6.98989
300.76247 7.30661 9.75633 4.65874 11.35662 6.68695
300.77191 7.14397 9.41801 4.49125 10.92971 6.44510
300.78134 6.97024 9.03500 4.31602 10.56549 6.19034
300.79081 6.80281 8.68769 4.15800 10.13742 5.93376
300.80024 6.58227 8.35018 4.01125 9.75153 5.72588
300.80967 6.24888 8.01792 3.83990 9.35172 5.49563
300.81914 5.92045 7.70205 3.70181 9.05037 5.28681
300.82857 5.57348 7.39408 3.56130 8.67022 5.07454
300.83800 5.32419 7.13999 3.46247 8.33103 4.88750
300.84744 5.14805 6.85220 3.34144 8.03307 4.71499
300.85690 5.01027 6.56669 3.20441 7.72038 4.53186
300.86634 4.91196 6.34646 3.09309 7.40682 4.37953
300.87577 4.78719 6.06851 2.95905 7.10840 4.19273
300.88520 4.63898 5.86682 2.85735 6.85178 4.05374
300.89467 4.41111 5.60631 2.76078 6.57001 3.87022
300.90410 4.15746 5.39314 2.67157 6.31335 3.74929
300.91353 3.91455 5.18721 2.57174 6.05161 3.60252
300.92297 3.77288 4.99256 2.49200 5.83593 3.47020
300.93240 3.63881 4.80273 2.40119 5.61234 3.34210
300.94187 3.57022 4.62989 2.32582 5.39553 3.24180
300.95130 3.51515 4.45069 2.25081 5.19385 3.12155
300.96073 3.42895 4.27654 2.15606 4.96824 2.99732
300.97017 3.29860 4.12067 2.09586 4.79673 2.89559
300.97960 3.14492 3.95797 2.02432 4.60669 2.78395
300.98903 2.97302 3.81395 1.95539 4.45112 2.70225
300.99850 2.83092 3.66464 1.89889 4.26381 2.60082
301.00793 2.70481 3.55723 1.83239 4.13735 2.51692
301.01737 2.62707 3.41385 1.77605 3.97430 2.43214
301.02680 2.58406 3.30105 1.72483 3.82444 2.36141
301.03623 2.52624 3.17040 1.65675 3.66096 2.26020
301.04567 2.48830 3.05810 1.60725 3.53681 2.19171
301.05510 2.40370 2.96378 1.56340 3.40826 2.12435
301.06456 2.29161 2.85149 1.49646 3.29433 2.04651
301.07400 2.17594 2.75830 1.46570 3.17689 1.99598
301.08343 2.06493 2.65369 1.41425 3.05428 1.91818
301.09286 1.97630 2.56897 1.36948 2.94612 1.86874
301.10230 1.92098 2.47543 1.33094 2.82997 1.79114
301.11173 1.89806 2.40213 1.28768 2.75022 1.74483
301.12117 1.86785 2.30498 1.26129 2.65505 1.68285
301.13060 1.84567 2.23005 1.22615 2.55893 1.62838
301.14003 1.78190 2.15948 1.17679 2.47288 1.57721
301.14947 1.69574 2.08468 1.14889 2.38557 1.53134
301.15890 1.60480 2.01376 1.10761 2.29717 1.48108
301.16836 1.53885 1.95935 1.08369 2.24789 1.43750
301.17780 1.47389 1.88728 1.04372 2.14749 1.39510
301.18723 1.45020 1.82717 1.02070 2.08746 1.35932
301.19667 1.42640 1.76033 0.99589 2.00483 1.30797
301.20610 1.41123 1.70815 0.96312 1.95473 1.27526
301.21553 1.38286 1.66341 0.94091 1.87722 1.23246
301.22497 1.33680 1.58847 0.90514 1.81329 1.19653
301.23440 1.28602 1.56161 0.89216 1.76549 1.16771
301.24383 1.22725 1.50321 0.86520 1.70928 1.11836
301.25327 1.16900 1.46801 0.83985 1.65801 1.09587
301.26270 1.13073 1.42602 0.81274 1.60956 1.07514
301.27214 1.10617 1.38800 0.79717 1.55358 1.02883
301.28157 1.09686 1.33147 0.77027 1.50556 1.00202
301.29100 1.07814 1.29115 0.75112 1.45290 0.97490
301.30044 1.06044 1.25838 0.73941 1.41313 0.95454
301.30987 1.04298 1.22732 0.71813 1.37161 0.93186
301.31930 0.98591 1.17546 0.69705 1.33597 0.90097
301.32874 0.94449 1.15521 0.68554 1.29430 0.86877
301.33817 0.91372 1.11728 0.65852 1.25765 0.84717
301.34761 0.87733 1.08313 0.64384 1.22519 0.83007
301.35704 0.85602 1.04903 0.63325 1.18562 0.80750
301.36644 0.85127 1.01872 0.61548 1.15113 0.78797
301.37588 0.84153 0.99843 0.59442 1.10880 0.76514
301.38531 0.82789 0.96500 0.58347 1.08474 0.74987
301.39474 0.80059 0.93699 0.57187 1.05034 0.72533
301.40418 0.77783 0.91431 0.55744 1.02873 0.71090
301.41361 0.74111 0.88472 0.53297 0.99129 0.68734
301.42305 0.71249 0.85976 0.52979 0.96254 0.67650
301.43248 0.68636 0.84275 0.51180 0.93882 0.65507
301.44191 0.67519 0.81859 0.50031 0.90993 0.63575
301.45135 0.66517 0.79960 0.49527 0.88436 0.61996
301.46078 0.66379 0.77363 0.47587 0.86858 0.60608
301.47018 0.65180 0.76055 0.47320 0.83440 0.58728
301.47962 0.63288 0.73370 0.45473 0.81022 0.57494
301.48905 0.61840 0.72223 0.45055 0.79071 0.56477
301.49849 0.58981 0.70796 0.43785 0.77521 0.55646
301.50792 0.57173 0.67718 0.42665 0.75416 0.53187
301.51735 0.55066 0.66504 0.41970 0.73817 0.53429
301.52679 0.53864 0.65296 0.41330 0.72470 0.51969
301.53619 0.53434 0.63548 0.39821 0.69896 0.49761
301.54562 0.53699 0.61483 0.38938 0.67904 0.48634
301.55506 0.52971 0.59592 0.38017 0.65498 0.48154
301.56449 0.51298 0.58347 0.36603 0.64428 0.46564
301.57393 0.49750 0.57562 0.36534 0.63419 0.45682
301.58336 0.47510 0.56189 0.35773 0.62176 0.45069
301.59276 0.45503 0.54948 0.35271 0.60245 0.43847
301.60220 0.44532 0.53141 0.34083 0.58366 0.42408
301.61163 0.43597 0.52030 0.33186 0.56074 0.41413
301.62106 0.43087 0.50376 0.32547 0.55172 0.40382
301.63050 0.43390 0.49350 0.31811 0.54566 0.40176
301.63990 0.42723 0.48528 0.31029 0.53191 0.38506
301.64933 0.41636 0.47465 0.30784 0.52016 0.38349
301.65877 0.40581 0.47051 0.30188 0.50957 0.37097
301.66820 0.38529 0.45798 0.29815 0.49089 0.36545
301.67760 0.37140 0.44070 0.29041 0.48601 0.35967
301.68703 0.35898 0.43098 0.28380 0.47432 0.34421
301.69646 0.35435 0.41892 0.27842 0.45663 0.34388
301.70590 0.35822 0.41688 0.27409 0.45133 0.33575
301.71530 0.35460 0.40025 0.26815 0.43955 0.32660
301.72473 0.35312 0.39297 0.25952 0.43203 0.32498
301.73417 0.33929 0.39006 0.25334 0.42073 0.31148
301.74357 0.32952 0.37639 0.24997 0.40828 0.30899
301.75301 0.31609 0.36352 0.24615 0.40118 0.29941
301.76244 0.30902 0.36308 0.24086 0.39283 0.29700
301.77187 0.30090 0.36028 0.23906 0.38449 0.28782
301.78128 0.29555 0.34278 0.23050 0.37531 0.28517
301.79071 0.29102 0.33551 0.22577 0.36706 0.27805
301.80014 0.29412 0.33374 0.22433 0.36082 0.27089
301.80955 0.29286 0.32398 0.21972 0.35517 0.27098
301.81898 0.28423 0.31536 0.21441 0.34587 0.26080
301.82842 0.27833 0.30856 0.21674 0.33102 0.25543
301.83782 0.26417 0.30262 0.20701 0.33029 0.25120
301.84725 0.25190 0.29440 0.19890 0.31818 0.24363
301.85669 0.24497 0.29132 0.19905 0.31750 0.23781
301.86609 0.24501 0.28519 0.19456 0.30741 0.23861
301.87552 0.24444 0.28466 0.19679 0.30731 0.23290
301.88493 0.24835 0.27317 0.18616 0.29714 0.23132
301.89436 0.23882 0.26557 0.18644 0.28693 0.22177
301.90380 0.23918 0.26365 0.18566 0.28660 0.22162
301.91320 0.23067 0.25898 0.17622 0.27961 0.21717
301.92263 0.22029 0.25259 0.17632 0.27202 0.21524
301.93207 0.21667 0.25053 0.17255 0.27194 0.20618
301.94147 0.20902 0.24188 0.16764 0.26051 0.20579
301.95090 0.20979 0.24070 0.16804 0.26313 0.19535
301.96031 0.20844 0.24369 0.16522 0.25793 0.19932
301.96974 0.20701 0.23061 0.16343 0.24421 0.19107
301.97915 0.20915 0.22983 0.16002 0.24219 0.19168
301.98858 0.20335 0.22095 0.15465 0.23633 0.18620
301.99801 0.19705 0.21546 0.15638 0.23234 0.19209
302.00742 0.18741 0.21559 0.15615 0.22905 0.18080
302.01685 0.18473 0.21318 0.14703 0.22953 0.17574
302.02625 0.17721 0.20296 0.14762 0.21998 0.17315
302.03569 0.17496 0.20301 0.14107 0.21374 0.17422
302.04508 0.17736 0.19844 0.14172 0.21460 0.16587
302.05452 0.17762 0.19440 0.14488 0.20774 0.16719
302.06392 0.17659 0.19361 0.13908 0.20691 0.16108
302.07335 0.17518 0.19143 0.13807 0.20277 0.16479
302.08276 0.16842 0.18724 0.13107 0.19430 0.15882
302.09219 0.16173 0.17794 0.13006 0.19938 0.15430
302.10159 0.15962 0.18543 0.12946 0.19090 0.15595
302.11103 0.15945 0.18022 0.12657 0.18789 0.15436
302.12043 0.15247 0.16995 0.12642 0.18504 0.15140
302.12987 0.15465 0.16915 0.12581 0.18401 0.14372
302.13927 0.14909 0.16644 0.11909 0.17650 0.14032
302.14870 0.15584 0.16374 0.11870 0.17597 0.14063
302.15811 0.14834 0.15896 0.11287 0.16624 0.13866
302.16754 0.14636 0.16042 0.11946 0.16973 0.13709
302.17694 0.13965 0.15348 0.11512 0.16471 0.13323
302.18638 0.13422 0.15862 0.10982 0.16009 0.13160
302.19578 0.13132 0.15186 0.11178 0.16354 0.12880
302.20519 0.12966 0.15293 0.10971 0.16286 0.13001
302.21462 0.13141 0.14877 0.10246 0.15366 0.12660
302.22402 0.13138 0.14606 0.11022 0.15500 0.12760
302.23346 0.13004 0.14326 0.10344 0.14903 0.12228
302.24286 0.13033 0.13828 0.10473 0.15062 0.11908
302.25229 0.13009 0.14074 0.10454 0.15195 0.12112
302.26170 0.12281 0.13417 0.10046 0.14223 0.11632
302.27110 0.12083 0.12833 0.10000 0.14084 0.11232
302.28054 0.11212 0.13389 0.09534 0.14350 0.11305
302.28994 0.11190 0.12965 0.09642 0.13960 0.10958
302.29937 0.11221 0.12649 0.09624 0.13499 0.11190
302.30877 0.11304 0.12544 0.09526 0.13220 0.10657
302.31817 0.11353 0.12552 0.09258 0.13336 0.10889
302.32760 0.11238 0.11633 0.08845 0.12579 0.10573
302.33701 0.11262 0.11902 0.08648 0.12551 0.09943
302.34641 0.10526 0.11577 0.08898 0.12622 0.10042
302.35585 0.10365 0.11513 0.08784 0.12171 0.10146
302.36525 0.10066 0.11685 0.08459 0.12266 0.09845
302.37465 0.10035 0.11408 0.08807 0.11868 0.09989
302.38409 0.09808 0.11118 0.08329 0.11664 0.09589
302.39349 0.09899 0.11239 0.08315 0.12002 0.09584
302.40289 0.09865 0.11121 0.08425 0.10762 0.09484
302.41233 0.10298 0.10848 0.08169 0.11422 0.09271
302.42173 0.09471 0.10523 0.07575 0.11013 0.09217
302.43113 0.09209 0.10203 0.07931 0.11122 0.08985
302.44057 0.08956 0.09883 0.07375 0.10277 0.08505
302.44997 0.09052 0.09993 0.07712 0.10506 0.08848
302.45938 0.09130 0.09952 0.07485 0.10242 0.08443
302.46878 0.08910 0.10011 0.07183 0.10362 0.08643
302.47821 0.08768 0.09460 0.07325 0.10144 0.08113
302.48762 0.09057 0.10009 0.07459 0.10431 0.08491
302.49702 0.08964 0.09209 0.06996 0.09653 0.08273
302.50642 0.08584 0.08867 0.07136 0.09679 0.08197
302.51586 0.08590 0.09329 0.07089 0.09743 0.08529
302.52526 0.07970 0.08812 0.06777 0.09388 0.08005
302.53466 0.07564 0.09255 0.07234 0.09506 0.07858
302.54406 0.07565 0.08629 0.07081 0.08867 0.07878
302.55349 0.07660 0.08455 0.06515 0.09065 0.07115
302.56290 0.07826 0.08826 0.06220 0.09050 0.07470
302.57230 0.07617 0.08528 0.06426 0.08945 0.07571
302.58170 0.07915 0.08148 0.06656 0.08902 0.07422
302.59111 0.07739 0.07979 0.06200 0.08424 0.07134
302.60054 0.07676 0.08149 0.06163 0.08941 0.06887
302.60995 0.07066 0.07957 0.06266 0.08105 0.06891
302.61935 0.07166 0.08060 0.06247 0.08693 0.06820
302.62875 0.06946 0.07886 0.05801 0.08509 0.07318
302.63816 0.06867 0.07913 0.06021 0.08262 0.06840
302.64756 0.07009 0.07771 0.06191 0.07931 0.06800
302.65699 0.07281 0.07467 0.06087 0.08295 0.06623
302.66640 0.07170 0.07619 0.06059 0.08026 0.06828
302.67580 0.07029 0.07368 0.05653 0.07710 0.06352
302.68521 0.06856 0.07494 0.05856 0.07937 0.06422
302.69461 0.06366 0.07022 0.05290 0.07355 0.06238
302.70401 0.06824 0.07397 0.05767 0.07522 0.06638
302.71345 0.06031 0.06746 0.05657 0.07361 0.06475
302.72284 0.05946 0.06718 0.05255 0.07153 0.06262
302.73224 0.06217 0.06709 0.04929 0.06802 0.06097
302.74165 0.06358 0.06838 0.05168 0.06676 0.06106
302.75105 0.06592 0.06886 0.05332 0.07249 0.05998
302.76046 0.05906 0.06683 0.04683 0.06916 0.05747
302.76986 0.06165 0.06449 0.05057 0.06960 0.05553
302.77926 0.05604 0.06443 0.04829 0.06416 0.05810
302.78867 0.05993 0.06744 0.05113 0.06656 0.05480
302.79807 0.05612 0.06213 0.05144 0.06607 0.05412
302.80747 0.05554 0.06229 0.04775 0.06277 0.05643
302.81691 0.06030 0.06407 0.05373 0.06745 0.05766
302.82631 0.05805 0.06113 0.04845 0.06461 0.05471
302.83572 0.05640 0.05689 0.04392 0.06098 0.05510
302.84512 0.05637 0.05947 0.04624 0.06045 0.04761
302.85452 0.05298 0.05757 0.04317 0.06220 0.04916
302.86393 0.05487 0.05733 0.04985 0.06255 0.04911
302.87333 0.05433 0.05840 0.04653 0.05793 0.05233
302.88273 0.05412 0.05224 0.04603 0.05777 0.04895
302.89213 0.05021 0.06049 0.04699 0.05975 0.05023
302.90153 0.04845 0.05544 0.04373 0.05490 0.05185
302.91094 0.05198 0.05667 0.04674 0.06024 0.05335
302.92034 0.05189 0.05203 0.04209 0.05804 0.05139
302.92974 0.05014 0.05232 0.04138 0.05548 0.04888
302.93915 0.05289 0.05378 0.04460 0.06002 0.05004
302.94855 0.04756 0.05325 0.04167 0.05531 0.04631
302.95795 0.05032 0.05498 0.04380 0.05265 0.04722
302.96736 0.04710 0.05347 0.04442 0.05511 0.04836
302.97676 0.05076 0.04581 0.04428 0.05311 0.04562
302.98617 0.04422 0.05180 0.04186 0.05541 0.04476
302.99557 0.04427 0.04649 0.03768 0.04940 0.03747
303.00497 0.04391 0.05290 0.04012 0.05025 0.04489
303.01435 0.04683 0.05102 0.03917 0.05319 0.04909
303.02375 0.04527 0.04974 0.03957 0.05088 0.04647
303.03315 0.04519 0.05167 0.03448 0.05074 0.04187
303.04255 0.04280 0.04803 0.03666 0.05066 0.04229
303.05195 0.04499 0.04795 0.03907 0.04758 0.04368
303.06136 0.04488 0.04918 0.03979 0.05078 0.04391
303.07076 0.04197 0.04443 0.03740 0.04732 0.04098
303.08016 0.04486 0.04660 0.03905 0.04670 0.03988
303.08957 0.04228 0.04760 0.03689 0.05013 0.04183
303.09897 0.04132 0.04509 0.03699 0.04846 0.04211
303.10837 0.04452 0.04440 0.03374 0.04563 0.04016
303.11775 0.04351 0.04574 0.03784 0.04586 0.04325
303.12715 0.04521 0.04615 0.03674 0.04737 0.03884
303.13656 0.04016 0.04315 0.03624 0.04607 0.04141
303.14596 0.03998 0.04350 0.03527 0.04520 0.03766
303.15536 0.03822 0.04298 0.03458 0.04191 0.03670
303.16477 0.03844 0.04147 0.03378 0.04115 0.03851
303.17417 0.03971 0.04295 0.03527 0.04540 0.03895
303.18354 0.04122 0.04190 0.03447 0.04337 0.04201
303.19294 0.03872 0.03937 0.03226 0.04234 0.03691
303.20234 0.03649 0.03797 0.03233 0.04219 0.03937
303.21175 0.03745 0.04483 0.03440 0.04209 0.03702
303.22115 0.03609 0.04031 0.03080 0.04195 0.03486
303.23055 0.03247 0.03668 0.02968 0.03966 0.03377
303.23993 0.03448 0.04127 0.03190 0.04219 0.03375
303.24933 0.03371 0.03920 0.03192 0.03960 0.03547
303.25873 0.03928 0.03794 0.03237 0.04165 0.03878
303.26814 0.03725 0.03891 0.03157 0.03880 0.03670
303.27754 0.03679 0.03508 0.02775 0.03837 0.03525
303.28692 0.03336 0.03220 0.03259 0.03959 0.03257
303.29632 0.03230 0.03506 0.03331 0.03630 0.03410
303.30572 0.03606 0.03732 0.02851 0.03955 0.03375
303.31513 0.03081 0.03619 0.02922 0.03556 0.03238
303.32449 0.03448 0.03406 0.02922 0.03488 0.03270
303.33389 0.03157 0.03845 0.02997 0.03949 0.03262
303.34330 0.03176 0.03476 0.02653 0.03686 0.03182
303.35270 0.03687 0.03518 0.03013 0.03745 0.03200
303.36208 0.03033 0.03381 0.03027 0.03533 0.03473
303.37148 0.03387 0.03605 0.02975 0.03601 0.03003
303.38088 0.03084 0.03491 0.02747 0.03586 0.03141
303.39026 0.02715 0.03119 0.02717 0.03559 0.03053
303.39966 0.03248 0.03264 0.02910 0.03467 0.03095
303.40906 0.02852 0.03245 0.02973 0.04010 0.03237
303.41847 0.02979 0.03345 0.02568 0.03576 0.02929
303.42784 0.03091 0.03177 0.02581 0.02773 0.02558
303.43725 0.02974 0.03222 0.02719 0.03418 0.03056
303.44665 0.02940 0.03260 0.02532 0.02852 0.02841
303.45601 0.02671 0.03273 0.02210 0.03066 0.02241
303.46542 0.03029 0.02735 0.02949 0.03143 0.02777
303.47482 0.02940 0.03282 0.02501 0.02980 0.02838
303.48419 0.02842 0.02902 0.02635 0.03537 0.02737
303.49360 0.03234 0.03147 0.02673 0.03014 0.03285
303.50300 0.02932 0.03071 0.02647 0.03327 0.02907
303.51238 0.02527 0.02969 0.02169 0.02765 0.02959
303.52178 0.02908 0.02996 0.02546 0.03127 0.02911
303.53115 0.03008 0.02916 0.02795 0.02968 0.02617
303.54056 0.02726 0.02891 0.02722 0.02919 0.02623
303.54996 0.02890 0.03135 0.02324 0.03134 0.02712
303.55933 0.02665 0.02982 0.02281 0.02957 0.02518
303.56874 0.02558 0.02697 0.02432 0.02926 0.02562
303.57810 0.02914 0.03508 0.02609 0.03027 0.02663
303.58751 0.02845 0.02829 0.02259 0.02958 0.02566
303.59691 0.02897 0.02651 0.02487 0.02934 0.02798
303.60628 0.02236 0.02755 0.02590 0.03267 0.02468
303.61569 0.02181 0.02723 0.02326 0.02878 0.02689
303.62506 0.02672 0.02301 0.02389 0.02760 0.02647
303.63446 0.02363 0.02598 0.02334 0.02748 0.02337
303.64384 0.02303 0.02539 0.02301 0.02891 0.02777
303.65324 0.02282 0.02721 0.02131 0.02698 0.02210
303.66265 0.02598 0.02735 0.02543 0.02909 0.02752
303.67202 0.02585 0.02897 0.02380 0.02998 0.02763
303.68142 0.02615 0.02372 0.02161 0.02582 0.02193
303.69079 0.02616 0.02852 0.02613 0.02880 0.02719
303.70019 0.02552 0.02489 0.02076 0.02592 0.02579
303.70956 0.02598 0.02708 0.02050 0.02761 0.02623
303.71897 0.02546 0.02508 0.01997 0.02536 0.02596
303.72834 0.02593 0.02557 0.02396 0.02606 0.02471
303.73775 0.02221 0.02483 0.01794 0.02812 0.02375
303.74712 0.02168 0.02430 0.01866 0.02535 0.02271
303.75652 0.02500 0.02535 0.02173 0.02587 0.02227
303.76590 0.02324 0.02309 0.02447 0.02864 0.02679
303.77530 0.02352 0.02235 0.02173 0.02417 0.02201
303.78467 0.02291 0.02223 0.02111 0.02687 0.02621
303.79408 0.02470 0.02557 0.01811 0.02613 0.02297
303.80344 0.02322 0.02433 0.01839 0.02541 0.02121
303.81282 0.02366 0.02527 0.02261 0.02506 0.02545
303.82222 0.02094 0.02429 0.02041 0.02383 0.02195
303.83159 0.02124 0.02334 0.01696 0.02114 0.02275
303.84100 0.02109 0.02190 0.02105 0.02197 0.02058
303.85037 0.02044 0.02377 0.02068 0.02136 0.02020
303.85977 0.02398 0.02481 0.01946 0.02237 0.02149
303.86915 0.02538 0.02098 0.01888 0.02574 0.02140
303.87852 0.02206 0.02040 0.02227 0.02122 0.02129
303.88793 0.02240 0.02350 0.02064 0.02232 0.01990
303.89730 0.02378 0.02511 0.02199 0.02293 0.02004
303.90669 0.02215 0.02474 0.01965 0.02231 0.02168
303.91607 0.01971 0.01881 0.01871 0.02261 0.01949
303.92544 0.02005 0.02617 0.01925 0.02517 0.02130
303.93484 0.01493 0.01946 0.01811 0.02180 0.01616
303.94422 0.02033 0.02367 0.01954 0.02198 0.02057
303.95359 0.01544 0.02028 0.01919 0.02138 0.01821
303.96300 0.02163 0.02271 0.01934 0.02355 0.02215
303.97237 0.02208 0.02394 0.01757 0.02296 0.01860
303.98177 0.01917 0.02229 0.01716 0.02036 0.01694
303.99115 0.02099 0.02257 0.01843 0.01965 0.01997
304.00052 0.01751 0.01912 0.01774 0.02073 0.02185
304.00991 0.02088 0.02071 0.01936 0.02257 0.02163
304.01929 0.01993 0.01821 0.01940 0.01934 0.01841
304.02866 0.02201 0.02467 0.02352 0.02320 0.02076
304.03804 0.02078 0.02065 0.01873 0.01943 0.01928
304.04744 0.02419 0.02045 0.01906 0.02156 0.01832
304.05681 0.02052 0.02109 0.02204 0.02096 0.02130
304.06619 0.02050 0.02293 0.01969 0.02503 0.02000
304.07559 0.02381 0.02156 0.01757 0.02188 0.02199
304.08496 0.01798 0.02166 0.01746 0.01792 0.01774
304.09434 0.01630 0.02018 0.01678 0.02204 0.02089
304.10370 0.01807 0.02097 0.01957 0.02053 0.01707
304.11311 0.02294 0.02024 0.01633 0.01755 0.01636
304.12248 0.02001 0.02241 0.01923 0.02398 0.02105
304.13185 0.02139 0.02075 0.01783 0.02055 0.01937
304.14123 0.01895 0.02239 0.01740 0.01735 0.01513
304.15063 0.01607 0.01563 0.01275 0.01957 0.01558
304.16000 0.01915 0.02103 0.01761 0.01984 0.01813
304.16938 0.01705 0.02015 0.01396 0.01997 0.02008
304.17875 0.01177 0.02022 0.01631 0.02025 0.01838
304.18816 0.01752 0.01685 0.01472 0.01643 0.01627
304.19753 0.01348 0.01835 0.01876 0.01769 0.01675
304.20689 0.01665 0.01774 0.01890 0.01657 0.01641
304.21627 0.01866 0.01672 0.01791 0.01805 0.01791
304.22564 0.01537 0.01619 0.01460 0.01707 0.02169
304.23504 0.01384 0.01796 0.01559 0.01681 0.01814
304.24442 0.02118 0.01873 0.01537 0.02110 0.01665
304.25379 0.01623 0.01731 0.01521 0.01616 0.01623
304.26317 0.01692 0.01701 0.01439 0.01508 0.01693
304.27254 0.01551 0.01534 0.01525 0.01519 0.01859
304.28191 0.01535 0.01719 0.01610 0.01503 0.01686
304.29132 0.01996 0.01929 0.01641 0.02240 0.01716
304.30068 0.01637 0.01821 0.01561 0.02007 0.01386
304.31005 0.01907 0.01664 0.01477 0.02278 0.01934
304.31943 0.01512 0.01746 0.01460 0.02113 0.01690
304.32880 0.01546 0.01705 0.01519 0.01868 0.01573
304.33818 0.01570 0.02137 0.01544 0.01843 0.01472
304.34755 0.01433 0.01746 0.01507 0.01881 0.01586
304.35692 0.01390 0.01727 0.01441 0.01662 0.01545
304.36633 0.01433 0.01949 0.01508 0.01654 0.01662
304.37570 0.01931 0.02039 0.01827 0.01848 0.01652
304.38506 0.01965 0.01670 0.01686 0.01730 0.01587
304.39444 0.01693 0.01473 0.01316 0.01936 0.01442
304.40381 0.01457 0.01464 0.01280 0.01651 0.01383
304.41319 0.01581 0.01840 0.01380 0.01474 0.01733
304.42256 0.01542 0.01724 0.01465 0.01560 0.01441
304.43193 0.01450 0.01685 0.01447 0.02146 0.01828
304.44131 0.01779 0.01735 0.01523 0.01772 0.02033
304.45068 0.01787 0.01689 0.01605 0.01779 0.01608
304.46005 0.01270 0.01630 0.01394 0.01518 0.01727
304.46942 0.01419 0.01400 0.01444 0.01814 0.01447
304.47879 0.01326 0.01761 0.01148 0.01347 0.01529
304.48817 0.01483 0.01540 0.01355 0.01352 0.01739
304.49754 0.01470 0.01527 0.01293 0.01590 0.01142
304.50691 0.01472 0.01606 0.01220 0.01266 0.01399
304.51629 0.01363 0.01570 0.01239 0.01833 0.01190
304.52566 0.01416 0.01624 0.01039 0.01511 0.01418
304.53503 0.01110 0.01466 0.01161 0.01331 0.01312
304.54441 0.01791 0.01522 0.01665 0.01760 0.01393
304.55378 0.01287 0.01342 0.01109 0.01557 0.01438
304.56315 0.01266 0.01145 0.01164 0.01411 0.01342
304.57252 0.01668 0.01341 0.01361 0.01633 0.01668
304.58189 0.01767 0.01800 0.01435 0.01403 0.01513
304.59127 0.01523 0.01504 0.01292 0.01363 0.01194
304.60064 0.01464 0.01773 0.01260 0.01632 0.01514
304.61001 0.01595 0.01425 0.01239 0.01439 0.01700
304.61939 0.01463 0.01342 0.00781 0.01432 0.01288
304.62876 0.01421 0.01911 0.01443 0.01666 0.01650
304.63814 0.01069 0.01329 0.01196 0.01394 0.01223
304.64750 0.01474 0.01249 0.01116 0.01442 0.01169
304.65687 0.01146 0.01100 0.01043 0.01421 0.01249
304.66625 0.01093 0.00817 0.00685 0.01113 0.01245
304.67562 0.01198 0.01277 0.01473 0.01669 0.01223
304.68499 0.01253 0.01257 0.01301 0.01395 0.01354
304.69437 0.01214 0.01395 0.01262 0.01357 0.01265
304.70371 0.01620 0.01553 0.01520 0.01589 0.01473
304.71309 0.01184 0.01441 0.01183 0.01557 0.01488
304.72245 0.01269 0.01501 0.00816 0.01489 0.01370
304.73182 0.01404 0.01334 0.01480 0.01574 0.01355
304.74120 0.01325 0.01280 0.01624 0.01270 0.01350
304.75057 0.01608 0.01214 0.01632 0.01528 0.01234
304.75994 0.00846 0.01250 0.00822 0.01315 0.01071
304.76932 0.01047 0.01101 0.01121 0.01167 0.01297
304.77866 0.01245 0.01428 0.01144 0.01391 0.01322
304.78804 0.01573 0.01354 0.01246 0.01342 0.01198
304.79741 0.01722 0.01779 0.01494 0.01564 0.01697
304.80677 0.01479 0.01537 0.01003 0.01324 0.01354
304.81615 0.01479 0.01285 0.01103 0.01399 0.01407
304.82549 0.01399 0.01430 0.01172 0.01642 0.01425
304.83486 0.01432 0.01414 0.01014 0.01402 0.01016
304.84424 0.01007 0.01208 0.01201 0.01052 0.01253
304.85361 0.01378 0.01458 0.00987 0.01591 0.01135
304.86299 0.01432 0.01312 0.00987 0.01498 0.00963
304.87233 0.01372 0.01128 0.01296 0.01512 0.01323
304.88169 0.01075 0.01253 0.00901 0.00947 0.01273
304.89107 0.01036 0.00966 0.00937 0.01203 0.01234
304.90044 0.01229 0.01629 0.00984 0.01273 0.01082
304.90981 0.01158 0.01333 0.00962 0.01347 0.01402
304.91916 0.01048 0.01051 0.01192 0.01237 0.01121
304.92853 0.01208 0.01385 0.00988 0.01545 0.01210
304.93791 0.00848 0.01517 0.00797 0.00966 0.00922
304.94728 0.01377 0.01186 0.00933 0.01370 0.01377
304.95661 0.01104 0.01183 0.01103 0.01197 0.00982
304.96599 0.01255 0.01607 0.00934 0.01225 0.01231
304.97536 0.01152 0.01256 0.01200 0.01464 0.01081
304.98470 0.01339 0.01173 0.01119 0.01041 0.01339
304.99408 0.01265 0.01027 0.00949 0.01432 0.01193
305.00345 0.01130 0.01529 0.01056 0.00954 0.00934
305.01283 0.01216 0.01098 0.01117 0.01430 0.00996
305.02217 0.01002 0.01080 0.00976 0.01194 0.01052
305.03153 0.01054 0.01107 0.01027 0.00974 0.00978
305.04091 0.01245 0.01027 0.01466 0.01509 0.01343
305.05025 0.01050 0.01080 0.01025 0.01217 0.01273
305.05962 0.00702 0.01101 0.00898 0.01213 0.00899
305.06900 0.01025 0.00831 0.00827 0.01045 0.01124
305.07834 0.01344 0.01324 0.01072 0.01216 0.01148
305.08772 0.00935 0.01290 0.01159 0.01402 0.01110
305.09709 0.00842 0.01070 0.01040 0.01085 0.01165
305.10642 0.01002 0.01254 0.00951 0.01072 0.00631
305.11580 0.01046 0.00877 0.00922 0.01334 0.00899
305.12514 0.01091 0.01072 0.00821 0.01136 0.01019
305.13451 0.01261 0.01142 0.01015 0.01329 0.01286
305.14389 0.00889 0.00918 0.01034 0.00957 0.00914
305.15323 0.01019 0.01443 0.00993 0.01259 0.00996
305.16261 0.01038 0.01041 0.00962 0.01057 0.01038
305.17198 0.01207 0.01014 0.01131 0.01079 0.01355
305.18131 0.00904 0.01107 0.00952 0.01170 0.00855
305.19069 0.01030 0.00884 0.00904 0.01197 0.01056
305.20003 0.01041 0.01269 0.00743 0.00863 0.00694
305.20940 0.00883 0.01086 0.00956 0.01151 0.01082
305.21875 0.01056 0.00861 0.00856 0.01273 0.01081
305.22812 0.00920 0.01049 0.00919 0.01337 0.00896
305.23750 0.01097 0.00901 0.00597 0.01340 0.01196
305.24683 0.01192 0.01396 0.00823 0.01580 0.00922
305.25620 0.00903 0.01056 0.00878 0.00924 0.01003
305.26555 0.01177 0.01159 0.00706 0.01173 0.00906
305.27492 0.00791 0.01043 0.00642 0.01034 0.00866
305.28426 0.01012 0.00943 0.01036 0.01230 0.00914
305.29364 0.01026 0.01255 0.01051 0.01268 0.01077
305.30298 0.00980 0.00910 0.00930 0.01244 0.00957
305.31236 0.01150 0.01228 0.00903 0.01097 0.01125
305.32169 0.01090 0.01046 0.00967 0.01231 0.00993
305.33106 0.01036 0.01017 0.00844 0.00938 0.00965
305.34041 0.00885 0.01133 0.01055 0.01051 0.00837
305.34978 0.00667 0.01157 0.00860 0.00931 0.00789
305.35912 0.01364 0.01491 0.00808 0.01070 0.01220
305.36850 0.01203 0.01085 0.01080 0.00690 0.01034
305.37784 0.00875 0.00853 0.00970 0.01162 0.00803
305.38721 0.00753 0.01048 0.00993 0.01088 0.00923
305.39655 0.00886 0.00986 0.00763 0.01172 0.00838
305.40592 0.00741 0.00769 0.00983 0.01053 0.00499
305.41527 0.01103 0.01253 0.00593 0.01316 0.01103
305.42461 0.00699 0.00775 0.00552 0.00915 0.00699
305.43399 0.01176 0.01181 0.00906 0.01000 0.01422
305.44333 0.00733 0.00810 0.00880 0.00924 0.00661
305.45269 0.01083 0.00939 0.00492 0.00759 0.00690
305.46204 0.00620 0.00818 0.00498 0.00715 0.00742
305.47141 0.00983 0.01083 0.00496 0.00906 0.00861
305.48075 0.01016 0.01140 0.00845 0.00914 0.01088
305.49010 0.00617 0.00862 0.00592 0.00831 0.00641
305.49947 0.00800 0.01071 0.00823 0.00796 0.00824
305.50882 0.00776 0.01145 0.00630 0.01039 0.01043
305.51815 0.00945 0.01144 0.00824 0.00966 0.00631
305.52752 0.01007 0.00819 0.00790 0.00740 0.00959
305.53687 0.00866 0.00820 0.00745 0.00862 0.00794
305.54624 0.00738 0.01124 0.00905 0.00664 0.00691
305.55558 0.00678 0.00753 0.00701 0.00769 0.00607
305.56493 0.00918 0.00754 0.00655 0.01104 0.00680
305.57430 0.00918 0.00635 0.00751 0.00914 0.00633
305.58364 0.00431 0.00601 0.00526 0.00787 0.00671
305.59298 0.00845 0.00945 0.00703 0.00866 0.01179
305.60235 0.00973 0.00687 0.00708 0.00777 0.01069
305.61170 0.00827 0.00878 0.00993 0.01085 0.00731
305.62104 0.01044 0.00878 0.00731 0.00823 0.00732
305.63041 0.01086 0.01185 0.01084 0.01152 0.01278
305.63976 0.00985 0.00749 0.00505 0.00814 0.00890
305.64909 0.00854 0.00978 0.00925 0.00921 0.00855
305.65844 0.00970 0.01262 0.00897 0.01037 0.01067
305.66781 0.00747 0.00725 0.00626 0.00744 0.00723
305.67715 0.00888 0.00699 0.00623 0.00669 0.00672
305.68650 0.00740 0.00524 0.00618 0.01123 0.00862
305.69587 0.00763 0.00913 0.00957 0.00688 0.01103
305.70521 0.00872 0.01046 0.00871 0.00628 0.01042
305.71455 0.00811 0.00959 0.01027 0.00976 0.00617
305.72389 0.00632 0.00780 0.00485 0.00895 0.00899
305.73327 0.00785 0.01176 0.01001 0.00806 0.01100
305.74261 0.00375 0.00644 0.00447 0.00542 0.01004
305.75195 0.00626 0.00797 0.00793 0.00575 0.00769
305.76130 0.00754 0.00733 0.00682 0.00680 0.00467
305.77063 0.00860 0.00912 0.00931 0.01024 0.01004
305.78000 0.00834 0.00861 0.00809 0.00879 0.00858
305.78935 0.01184 0.01021 0.00633 0.00726 0.01112
305.79869 0.00637 0.00616 0.00805 0.00826 0.00878
305.80804 0.00788 0.00817 0.00550 0.00857 0.00742
305.81738 0.00651 0.00994 0.00844 0.00697 0.00942
305.82675 0.00718 0.00745 0.00359 0.00739 0.00646
305.83609 0.00808 0.00810 0.00687 0.00996 0.01025
305.84543 0.00792 0.01085 0.00937 0.00980 0.00938
305.85477 0.00688 0.00764 0.00857 0.00950 0.00496
305.86412 0.00785 0.01006 0.00808 0.00781 0.01075
305.87346 0.00740 0.00767 0.00716 0.00785 0.00741
305.88284 0.01039 0.00996 0.00822 0.01445 0.01041
305.89218 0.00680 0.00609 0.00727 0.00725 0.00752
305.90151 0.01035 0.00722 0.00693 0.00861 0.00670
305.91086 0.00729 0.00732 0.00970 0.00605 0.00778
305.92020 0.00893 0.00700 0.00820 0.00646 0.00600
305.92954 0.00711 0.00811 0.00735 0.00635 0.00785
305.93889 0.00789 0.00990 0.00886 0.01129 0.00715
305.94823 0.00861 0.00641 0.00761 0.00807 0.00688
305.95757 0.00365 0.00903 0.00461 0.00581 0.00390
305.96694 0.00540 0.00862 0.00514 0.00683 0.00565
305.97628 0.00815 0.00990 0.00717 0.00860 0.01109
305.98563 0.00636 0.00738 0.01027 0.00682 0.00808
305.99497 0.01108 0.01140 0.01157 0.00886 0.00744
306.00431 0.00741 0.00720 0.00425 0.00568 0.00353
306.01365 0.00553 0.00482 0.00700 0.01090 0.00949
306.02299 0.00674 0.00751 0.00698 0.00768 0.00430
306.03234 0.00700 0.00752 0.00552 0.00770 0.00578
306.04168 0.00757 0.00637 0.00829 0.00924 0.00855
306.05102 0.00530 0.00630 0.00356 0.00282 0.00579
306.06037 0.00529 0.00531 0.00529 0.01017 0.00505
306.06970 0.00347 0.00770 0.00594 0.00493 0.00619
306.07904 0.00752 0.00631 0.00653 0.00651 0.00605
306.08839 0.00682 0.00511 0.00756 0.00629 0.00930
306.09773 0.00750 0.00827 0.00700 0.00795 0.00455
306.10708 0.00985 0.01063 0.00668 0.01078 0.00864
306.11642 0.00559 0.00732 0.00631 0.00701 0.00511
306.12576 0.00767 0.00526 0.00548 0.00861 0.00793
306.13510 0.00818 0.00773 0.00842 0.00765 0.00746
306.14444 0.01007 0.00888 0.00810 0.00954 0.00886
306.15378 0.00660 0.00982 0.00513 0.00779 0.00759
306.16313 0.00699 0.00702 0.00527 0.00696 0.00307
306.17247 0.00790 0.01062 0.00838 0.00908 0.00985
306.18182 0.00778 0.00781 0.00728 0.00702 0.00706
306.19115 0.00410 0.00484 0.00385 0.00792 0.00724
306.20049 0.00680 0.00706 0.00606 0.00701 0.00825
306.20984 0.01101 0.01032 0.00833 0.00686 0.00496
306.21918 0.00670 0.00550 0.00499 0.00886 0.00695
306.22853 0.00750 0.00607 0.00507 0.00674 0.00630
306.23787 0.00605 0.00534 0.00266 0.00554 0.00629
306.24720 0.00458 0.00290 0.00289 0.00288 0.00241
306.25652 0.00955 0.00813 0.01098 0.00902 0.00448
306.26586 0.00653 0.00535 0.00749 0.00794 0.00775
306.27520 0.00814 0.00622 0.00497 0.00592 0.01058
306.28455 0.00693 0.00818 0.00740 0.00836 0.00816
306.29389 0.00724 0.00776 0.00819 0.00769 0.00724
306.30323 0.00593 0.00718 0.00568 0.00735 0.00569
306.31257 0.00671 0.00845 0.00427 0.00570 0.00647
306.32191 0.01077 0.00885 0.00636 0.00804 0.00858
306.33123 0.00416 0.00344 0.00489 0.00316 0.00343
306.34057 0.00431 0.01025 0.00774 0.00722 0.00603
306.34991 0.00648 0.00700 0.00501 0.00621 0.00648
306.35925 0.00474 0.00816 0.00497 0.00786 0.00790
306.36859 0.00778 0.00830 0.00510 0.00726 0.00584
306.37794 0.00556 0.00729 0.00435 0.00698 0.00871
306.38725 0.00582 0.00585 0.00557 0.00628 0.00728
306.39659 0.00603 0.00291 0.00265 0.00625 0.00483
306.40593 0.00620 0.00549 0.00594 0.00713 0.00596
306.41527 0.00460 0.00583 0.00702 0.00867 0.00630
306.42461 0.00559 0.00707 0.00656 0.00629 0.00608
306.43396 0.00566 0.00617 0.00782 0.00636 0.00880
306.44327 0.00636 0.00519 0.00684 0.00754 0.00757
306.45262 0.00600 0.00699 0.00743 0.00765 0.00456
306.46195 0.00687 0.00642 0.00614 0.00660 0.00591
306.47129 0.00723 0.00895 0.00529 0.00647 0.00651
306.48061 0.00531 0.00872 0.00458 0.00985 0.00507
306.48995 0.00474 0.00232 0.00304 0.00763 0.00523
306.49929 0.00774 0.00534 0.00483 0.00553 0.00678
306.50864 0.00933 0.00401 0.00641 0.00735 0.00691
306.51794 0.00424 0.00474 0.00520 0.00615 0.00666
306.52729 0.00446 0.00521 0.00591 0.00590 0.00254
306.53663 0.00581 0.00389 0.00654 0.00652 0.00777
306.54597 0.00698 0.00554 0.00747 0.00744 0.00528
306.55529 0.00355 0.00455 0.00599 0.00646 0.00771
306.56463 0.00832 0.00860 -0.00122 0.00609 0.00612
306.57396 0.00517 0.00618 0.00738 0.00711 0.00764
306.58328 0.00442 0.00222 0.00270 0.00245 0.00270
306.59262 0.00656 0.00609 0.00482 0.00776 0.00632
306.60197 0.00832 0.00517 0.00440 0.00828 0.00784
306.61128 0.00567 0.00742 0.00936 0.00711 0.00568
306.62061 0.00456 0.00755 0.00775 0.00846 0.00555
306.62996 0.01042 0.00973 0.00625 0.00671 0.00724
306.63927 0.00440 0.00564 0.00488 0.00705 0.01001
306.64861 0.00731 0.00807 0.00803 0.00849 0.00853
306.65796 0.00208 0.00405 0.00232 0.00450 0.00600
306.66727 0.00647 0.00674 0.00841 0.00377 0.00550
306.67661 0.00539 0.00493 0.00318 0.00611 0.00319
306.68595 0.00393 0.00962 0.00613 0.00465 0.00714
306.69526 0.00615 0.00766 0.00516 0.00636 0.00394
306.70461 0.00948 0.00581 0.00529 0.00576 0.00603
306.71392 0.00343 0.00295 0.00293 -0.00024 0.00318
306.72325 0.00536 0.00758 0.00486 0.00485 0.00414
306.73260 0.00809 0.00738 0.00661 0.00537 0.00564
306.74191 0.00401 0.00599 0.00595 0.00618 0.00450
306.75126 0.00653 0.00267 0.00024 0.00482 0.00218
306.76057 0.00230 0.00401 0.00568 0.00782 0.00569
306.76991 0.00400 0.00523 0.00448 0.00229 0.00643
306.77925 0.00765 0.00743 0.00158 0.00399 0.00498
306.78856 0.00617 0.00815 0.00713 0.00398 0.00739
306.79791 0.00354 0.00600 0.00499 0.00571 0.00329
306.80722 0.00206 0.00621 0.00496 0.00326 0.00716
306.81656 0.00532 0.00267 0.00217 0.00843 0.00848
306.82587 0.00625 0.00458 0.00552 0.00838 0.00626
306.83521 0.00822 0.00897 0.00555 0.00794 0.00847
306.84452 0.00613 0.00398 0.00660 0.00682 0.00733
306.85387 0.00255 0.00328 0.00109 0.00712 0.00545
306.86318 0.00241 0.00629 0.00579 0.00528 0.00651
306.87253 0.00581 0.00656 0.00773 0.00602 0.00557
306.88183 0.00642 0.00838 0.00641 0.00590 0.00836
306.89117 0.00278 0.00109 0.00277 0.00420 0.00229
306.90049 0.00457 0.00506 0.00505 0.00479 0.00336
306.90983 0.00338 0.00436 0.00338 0.00409 0.00290
306.91914 0.01003 0.00594 0.00254 0.00493 0.00472
306.92848 0.00376 0.00548 0.00279 0.00495 0.00206
306.93779 0.00481 0.00604 0.00385 0.00695 0.00434
306.94714 0.00507 0.00823 0.00410 0.00576 0.00362
306.95645 0.00858 0.00861 0.00302 0.00686 0.00810
306.96579 0.00302 0.00400 0.00229 0.00444 0.00737
306.97510 0.00279 0.00548 0.00521 0.00639 0.00790
306.98444 0.00837 0.00572 0.00424 0.00519 0.00449
306.99375 0.00426 0.00697 -0.00061 0.00206 0.00426
307.00307 0.00619 0.00451 0.00521 0.00423 0.00571
307.01241 0.00634 0.00465 0.00632 0.00558 0.00512
307.02172 0.00391 0.00637 0.00219 0.00486 0.00342
307.03106 0.00378 0.00576 0.00256 0.00643 0.00402
307.04037 0.00414 0.00636 0.00049 0.00825 0.00463
307.04969 0.00391 0.00392 0.00171 0.00389 0.00269
307.05903 0.00183 0.00453 0.00256 0.00085 0.00354
307.06833 0.00510 0.00537 0.00267 0.00702 0.00536
307.07768 0.00740 0.00646 0.00448 0.00689 0.00425
307.08699 0.00504 0.00629 0.00233 0.00721 0.00504
307.09631 0.00688 0.00370 0.00466 0.00440 0.00197
307.10565 0.00493 0.00496 0.00493 0.00564 0.00568
307.11496 0.00410 0.00587 0.00682 0.00531 0.00286
307.12427 0.00456 0.00434 0.00579 0.00356 0.00407
307.13361 0.00037 0.00310 0.00308 0.00528 0.00482
307.14292 0.00433 0.00659 0.00358 0.00308 0.00508
307.15224 0.00382 0.00531 0.00479 0.00331 0.00431
307.16158 0.00431 0.00433 0.00431 0.00576 0.00308
307.17089 0.00565 0.00296 0.00565 0.00563 0.00271
307.18020 0.00457 0.00112 0.00333 0.00480 0.00582
307.18954 0.00348 0.00749 0.00521 0.00471 0.00572
307.19886 -0.00186 0.00286 0.00185 0.00406 0.00186
307.20817 0.00469 0.00248 0.00197 0.00417 0.00419
307.21747 0.00740 0.00471 0.00394 0.00442 0.00345
307.22682 0.00585 0.00710 0.00560 0.00364 0.00756
307.23613 0.00538 0.00343 0.00415 0.00292 0.00489
307.24545 0.00330 0.00233 0.00476 0.00402 0.00453
307.25476 0.00815 0.00599 0.00353 0.01029 0.00743
307.26409 0.00599 0.00700 0.00476 0.00596 0.00869
307.27341 0.00426 0.00379 0.00571 0.00472 0.00231
307.28272 0.00267 0.00268 0.00825 0.00411 0.00413
307.29204 0.00402 0.00208 0.00280 0.00376 0.00694
307.30138 0.00720 0.00820 0.00597 0.00668 0.00500
307.31068 0.00379 0.00282 0.00403 0.00255 0.00281
307.32000 0.00588 0.00590 0.00612 0.00684 0.00589
307.32931 0.00599 0.00307 0.00745 0.00622 0.00649
307.33865 0.00416 0.00344 0.00147 0.00439 0.00196
307.34797 0.00343 0.00296 0.00318 0.00513 0.00245
307.35727 0.00489 0.00344 0.00807 0.00536 0.00613
307.36659 0.00061 0.00184 0.00403 0.00377 0.00452
307.37590 0.00653 0.00267 0.00653 0.00844 0.00436
307.38521 0.00558 0.00756 0.00509 0.00798 0.00680
307.39456 0.00484 0.00559 0.00532 0.00482 0.00460
307.40386 0.00623 0.00503 0.00378 0.00718 0.00257
307.41317 0.00425 0.00061 0.00279 0.00471 0.00498
307.42249 0.00496 0.00571 0.00398 0.00518 0.00278
307.43180 0.00750 0.00535 0.00435 0.00386 0.00582
307.44111 0.00587 0.00614 0.00419 0.00442 0.00372
307.45045 0.00418 0.00419 0.00274 0.00440 0.00513
307.45976 0.00393 0.00538 0.00297 0.00154 0.00441
307.46908 0.00346 0.00515 0.00585 0.00178 0.00346
307.47839 0.00583 0.00586 0.00274 0.00296 0.00393
307.48769 0.00430 0.00528 0.00501 0.00547 0.00239
307.49701 0.00263 0.00601 0.00550 0.00477 0.00455
307.50632 0.00408 0.00289 0.00288 0.00406 0.00312
307.51564 0.00456 0.00337 0.00599 0.00789 0.00720
307.52495 0.00227 0.00372 0.00466 0.00107 0.00419
307.53425 0.00515 0.00879 0.00108 0.00609 0.00708
307.54357 0.00481 0.00048 0.00144 0.00072 0.00626
307.55291 0.00276 0.00374 0.00060 0.00275 0.00493
307.56222 0.00495 0.00328 0.00447 0.00132 0.00302
307.57154 0.00518 0.00423 0.00373 0.00635 0.00542
307.58084 0.00097 0.00339 0.00097 0.00216 0.00024
307.59016 0.00360 0.00409 0.00048 0.00334 0.00480
307.59947 0.00460 0.00413 0.00606 0.00579 0.00703
307.60878 0.00545 0.00256 0.00206 0.00712 0.00352
307.61809 0.00146 0.00268 0.00315 0.00121 0.00121
307.62740 0.00267 0.00268 0.00218 0.00677 0.00316
307.63671 0.00097 0.00196 0.00389 0.00510 0.00195
307.64603 0.00366 0.00220 0.00585 0.00413 0.00317
307.65534 0.00717 0.00549 0.00328 0.00762 0.00547
307.66465 0.00519 0.00424 0.00277 0.00325 0.00326
307.67396 0.00554 0.00508 0.00289 0.00456 0.00265
307.68327 0.00374 0.00425 0.00543 0.00397 0.00640
307.69259 0.00240 0.00337 0.00263 0.00430 0.00432
307.70190 0.00133 -0.00036 0.00012 0.00493 0.00230
307.71121 0.00412 0.00439 0.00461 0.00242 0.00194
307.72052 0.00461 0.00561 0.00340 0.00387 0.00413
307.72983 0.00218 0.00633 0.00218 0.00627 0.00340
307.73915 0.00243 0.00293 0.00243 0.00266 0.00122
307.74842 0.00326 0.00255 0.00181 0.00445 0.00399
307.75773 0.00305 0.00331 0.00426 0.00304 0.00427
307.76705 0.00133 0.00524 0.00521 0.00471 0.00303
307.77636 0.00475 0.00403 0.00109 0.00376 0.00451
307.78568 0.00134 0.00280 0.00158 0.00157 0.00498
307.79498 0.00231 0.00110 0.00353 0.00109 0.00378
307.80429 0.00291 0.00438 0.00412 0.00507 0.00461
307.81361 0.00353 0.00061 0.00037 0.00352 0.00476
307.82292 0.00375 0.00255 0.00351 0.00350 0.00400
307.83223 0.00232 0.00478 0.00427 0.00595 0.00427
307.84154 0.00485 0.00390 0.00388 0.00386 0.00412
307.85082 0.00386 0.00436 0.00313 0.00456 0.00458
307.86014 0.00400 0.00596 0.00254 0.00446 0.00399
307.86945 0.00466 0.00660 0.00490 0.00488 0.00490
307.87875 0.00527 0.00336 0.00550 0.00334 0.00479
307.88807 0.00216 -0.00048 0.00120 0.00310 0.00120
307.89738 0.00119 0.00096 0.00406 0.00452 0.00406
307.90666 0.00381 0.00382 0.00499 0.00427 0.00595
307.91597 0.00263 0.00096 0.00287 0.00000 0.00024
307.92528 0.00228 0.00374 0.00204 0.00346 0.00156
307.93460 0.00339 0.00364 0.00555 0.00361 0.00484
307.94391 -0.00024 0.00000 0.00289 0.00336 0.00048
307.95322 0.00444 0.00615 0.00419 0.00538 0.00588
307.96250 0.00626 0.00387 0.00168 0.00527 0.00434
307.97181 0.00024 0.00097 0.00241 0.00216 0.00242
307.98112 0.00241 0.00242 0.00289 0.00288 0.00096
307.99044 -0.00048 0.00386 0.00144 0.00502 0.00312
307.99971 0.00385 0.00145 0.00456 0.00335 0.00385
308.00903 0.00239 0.00336 0.00526 0.00548 0.00455
308.01834 0.00227 0.00036 0.00203 0.00369 0.00251
308.02765 0.00370 -0.00012 0.00107 0.00249 0.00203
308.03694 0.00371 0.00372 0.00346 0.00155 0.00299
308.04624 0.00540 0.00445 0.00730 0.00227 0.00300
308.05555 0.00250 0.00418 0.00297 0.00485 0.00321
308.06487 0.00059 0.00274 0.00083 0.00201 0.00440
308.07415 0.00342 0.00225 0.00012 0.00152 0.00177
308.08346 0.00354 0.00592 0.00447 0.00211 0.00448
308.09277 -0.00094 0.00188 0.00164 0.00420 0.00234
308.10208 0.00070 0.00399 0.00070 0.00116 0.00117
308.11137 0.00071 0.00118 -0.00024 0.00258 0.00024
308.12068 0.00224 0.00249 0.00460 0.00412 0.00532
308.12999 0.00294 0.00484 0.00247 0.00410 0.00106
308.13927 0.00460 0.00605 0.00696 0.00787 0.00248
308.14858 0.00211 0.00071 0.00282 0.00234 0.00094
308.15790 0.00532 0.00344 -0.00035 0.00554 0.00249
308.16717 0.00142 0.00333 0.00000 0.00071 0.00000
308.17648 0.00471 0.00071 0.00305 0.00328 0.00118
308.18580 0.00343 0.00368 0.00342 0.00388 0.00225
308.19508 0.00709 0.00071 0.00260 0.00494 0.00638
308.20439 0.00095 0.00332 0.00354 0.00282 0.00402
308.21367 0.00271 0.00130 0.00318 0.00082 0.00106
308.22298 0.00297 0.00633 0.00463 0.00557 0.00655
308.23230 0.00372 0.00301 0.00563 0.00179 0.00348
308.24157 0.00347 0.00492 0.00466 0.00369 0.00467
308.25088 0.00203 0.00419 0.00440 0.00438 0.00607
308.26020 0.00299 0.00036 -0.00179 0.00346 0.00180
308.26948 0.00132 0.00469 0.00323 0.00393 0.00347
308.27880 0.00429 0.00263 0.00143 0.00499 0.00263
308.28807 -0.00024 0.00238 0.00095 0.00142 0.00380
308.29738 0.00059 0.00465 0.00131 0.00154 0.00440
308.30667 0.00546 0.00477 0.00071 0.00638 0.00404
308.31598 -0.00024 0.00381 -0.00071 0.00544 0.00570
308.32528 0.00402 0.00522 0.00142 0.00447 0.00615
308.33457 0.00155 0.00084 0.00226 0.00107 0.00417
308.34388 0.00153 0.00012 0.00082 0.00199 0.00459
308.35317 0.00238 0.00287 0.00262 0.00404 0.00382
308.36247 0.00153 0.00461 0.00012 0.00082 0.00530
308.37175 0.00273 0.00346 0.00297 0.00343 0.00439
308.38107 0.00118 0.00332 0.00425 0.00259 0.00497
308.39035 0.00024 0.00191 0.00309 0.00000 -0.00048
308.39965 0.00442 0.00492 0.00251 0.00250 0.00825
308.40894 0.00358 0.00168 0.00167 0.00238 0.00358
308.41825 0.00131 0.00371 0.00083 0.00249 0.00227
308.42754 0.00240 0.00265 0.00503 0.00263 0.00360
308.43685 0.00393 0.00491 0.00322 0.00558 0.00370
308.44612 0.00480 0.00506 0.00288 0.00358 0.00552
308.45544 0.00576 -0.00096 0.00048 0.00191 0.00264
308.46472 0.00313 0.00580 0.00385 0.00384 0.00506
308.47404 0.00594 0.00158 0.00012 0.00229 0.00085
308.48331 0.00170 0.00170 0.00145 0.00338 0.00145
308.49259 -0.00121 -0.00073 -0.00048 -0.00024 -0.00097
308.50191 0.00254 0.00134 0.00133 0.00132 0.00375
308.51119 0.00024 0.00122 0.00073 0.00337 0.00145
308.52049 0.00061 0.00304 0.00085 0.00109 0.00230
308.52978 0.00289 0.00024 0.00072 0.00048 0.00169
308.53909 0.00532 0.00413 0.00000 0.00578 0.00097
308.54838 0.00508 0.00097 0.00338 0.00385 0.00266
308.55765 0.00133 0.00085 0.00036 0.00157 0.00061
308.56696 0.00133 0.00400 0.00230 0.00421 0.00133
308.57625 0.00375 0.00329 0.00351 0.00567 0.00352
308.58556 -0.00108 0.00254 0.00253 0.00036 0.00133
308.59483 0.00496 0.00036 0.00133 0.00445 0.00278
308.60412 0.00292 -0.00049 0.00000 0.00049 0.00414
308.61343 0.00256 0.00110 0.00085 0.00401 0.00354
308.62272 0.00340 0.00293 -0.00024 0.00290 0.00195
308.63199 0.00024 0.00146 -0.00242 0.00193 -0.00024
308.64130 0.00277 0.00206 0.00301 0.00324 0.00230
308.65059 0.00384 0.00555 0.00432 0.00574 0.00192
308.65987 0.00084 0.00084 0.00251 0.00060 0.00227
308.66917 0.00227 0.00444 -0.00012 0.00202 0.00466
308.67846 0.00096 0.00266 0.00048 0.00336 0.00120
308.68774 0.00239 0.00312 0.00287 0.00596 0.00432
308.69706 0.00108 0.00133 0.00012 0.00084 0.00205
308.70633 0.00096 0.00337 0.00407 0.00478 0.00409
308.71561 0.00191 0.00382 0.00238 0.00403 0.00381
308.72493 0.00405 0.00144 -0.00024 -0.00024 0.00119
308.73421 0.00299 0.00060 0.00275 0.00488 0.00563
308.74348 0.00272 0.00036 0.00177 0.00224 0.00059
308.75277 0.00107 0.00299 0.00202 0.00201 0.00537
308.76208 0.00166 0.00190 0.00260 0.00094 -0.00118
308.77137 0.00508 0.00391 0.00248 0.00176 0.00295
308.78064 0.00451 0.00262 0.00261 0.00236 0.00190
308.78992 -0.00036 0.00131 0.00083 0.00059 0.00202
308.79924 0.00438 0.00416 0.00319 0.00577 0.00059
308.80852 0.00143 -0.00048 0.00048 0.00213 -0.00024
308.81780 0.00261 0.00048 0.00024 -0.00095 0.00024
308.82708 0.00383 0.00168 0.00383 0.00262 0.00192
308.83639 0.00425 0.00355 0.00354 0.00400 0.00307
308.84568 0.00438 0.00320 0.00106 0.00153 0.00367
308.85495 0.00096 0.00096 0.00072 -0.00119 0.00240
308.86423 0.00143 0.00096 0.00048 0.00190 -0.00286
308.87352 0.00347 0.00373 0.00108 0.00393 0.00300
308.88283 0.00298 0.00612 0.00012 0.00131 0.00131
308.89211 0.00024 0.00334 0.00143 0.00190 0.00238
308.90139 0.00449 0.00024 0.00071 0.00353 0.00497
308.91067 0.00331 0.00523 0.00260 0.00330 0.00403
308.91996 0.00131 0.00179 0.00439 0.00296 0.00107
308.92923 0.00440 0.00251 0.00036 0.00367 0.00178
308.93854 0.00130 0.00273 0.00154 0.00177 0.00273
308.94783 0.00248 0.00272 0.00365 0.00317 0.00177
308.95711 0.00638 0.00569 0.00142 0.00494 0.00544
308.96639 0.00309 -0.00024 0.00024 0.00189 0.00166
308.97567 0.00082 0.00721 0.00459 0.00176 0.00224
308.98495 0.00024 0.00237 0.00071 0.00470 0.00118
308.99423 0.00248 0.00368 0.00153 0.00223 0.00627
309.00351 0.00237 0.00048 0.00331 -0.00024 0.00119
309.01282 0.00286 0.00287 0.00405 0.00071 0.00310
309.02211 0.00311 0.00529 0.00598 0.00405 0.00647
309.03138 0.00095 0.00144 0.00167 0.00213 0.00143
309.04067 0.00071 -0.00048 -0.00047 0.00118 -0.00119
309.04995 0.00512 0.00227 0.00392 0.00391 0.00298
309.05923 0.00368 0.00107 -0.00202 0.00177 0.00131
309.06851 0.00084 0.00611 0.00226 0.00392 0.00561
309.07779 0.00241 0.00024 -0.00048 -0.00024 0.00024
309.08707 -0.00024 0.00024 0.00311 0.00358 0.00168
309.09636 0.00169 0.00461 0.00290 0.00674 0.00508
309.10563 0.00481 0.00555 0.00240 0.00574 0.00409
309.11492 0.00399 0.00449 0.00543 0.00277 0.00374
309.12420 0.00179 0.00084 0.00179 0.00012 -0.00036
309.13348 0.00277 0.00133 0.00108 0.00252 0.00157
309.14276 0.00445 0.00591 0.00252 0.00419 0.00421
309.15204 0.00132 0.00084 0.00084 0.00251 0.00325
309.16133 0.00613 0.00398 0.00108 0.00610 0.00397
309.17060 0.00395 0.00372 0.00299 0.00512 0.00347
309.17988 0.00192 0.00313 0.00120 0.00215 0.00336
309.18917 0.00060 0.00203 -0.00012 0.00273 0.00060
309.19845 0.00156 0.00423 -0.00012 0.00372 0.00325
309.20772 0.00287 0.00288 0.00358 0.00143 -0.00024
309.21701 -0.00156 -0.00157 0.00348 -0.00251 -0.00180
309.22629 -0.00060 -0.00085 -0.00108 0.00156 0.00132
309.23558 0.00338 0.00194 -0.00338 -0.00048 0.00169
309.24485 0.00132 0.00109 0.00301 0.00276 0.00157
309.25413 0.00121 0.00317 0.00145 0.00241 0.00267
309.26342 0.00217 0.00363 0.00193 0.00288 0.00362
309.27270 0.00109 0.00012 0.00084 0.00204 0.00012
309.28197 -0.00024 -0.00072 0.00096 0.00143 -0.00072
309.29126 0.00383 0.00504 0.00382 0.00476 0.00479
309.30051 0.00108 0.00156 0.00251 0.00084 0.00204
309.30979 0.00240 0.00265 0.00360 0.00263 0.00600
309.31907 0.00012 -0.00060 0.00132 -0.00179 0.00084
309.32835 0.00386 0.00169 -0.00024 0.00192 0.00024
309.33764 0.00012 0.00324 0.00322 0.00321 0.00132
309.34691 0.00192 -0.00048 -0.00048 0.00383 0.00168
309.35619 0.00419 0.00084 0.00084 0.00322 0.00156
309.36548 -0.00048 0.00168 0.00048 -0.00048 -0.00048
309.37473 0.00193 0.00291 0.00000 0.00313 0.00532
309.38401 0.00048 0.00000 -0.00048 -0.00262 -0.00096
309.39329 0.00266 0.00073 -0.00072 0.00024 0.00290
309.40257 -0.00072 0.00193 0.00456 0.00024 0.00168
309.41185 0.00012 0.00133 0.00228 0.00299 0.00325
309.42113 0.00361 0.00290 0.00096 0.00312 0.00217
309.43039 0.00096 0.00313 0.00048 0.00024 0.00096
309.43967 0.00456 0.00361 0.00479 0.00287 0.00360
309.44894 0.00145 0.00484 0.00193 0.00192 0.00410
309.45823 0.00024 0.00121 0.00264 0.00719 0.00265
309.46751 0.00314 0.00242 0.00434 0.00505 0.00290
309.47676 0.00147 0.00123 0.00122 0.00219 0.00269
309.48604 0.00597 0.00267 0.00089 0.00645 0.00114
