Date and Time:                Sun Jan 29 14:32:42.000 2023
Software Version:             4.31.30023.0
Temperature (C):              -40
Model:                        DU940P_BU2
Data Type:                    Counts
Acquisition Mode:             Single Scan
Trigger Mode:                 Internal
Exposure Time (secs):         0.22
Readout Mode:                 Full Vertical Binning
Horizontal binning:           1
Extended Dynamic Range:       off
Horizontally flipped:         false
Vertical Shift Speed (usecs): 14.51
Pixel Readout Rate (MHz):     3
Baseline Clamp:               ON
Clock Amplitude:              Normal
Output Amplifier:             High Capacity
Serial Number:                23634
Pre-Amplifier Gain:           1.000000
Spurious Noise Filter Mode:   No Filter
Photon counted:               false
Data Averaging Filter Mode:   No Filter
SR500i:
Serial Number:                
Wavelength (nm):              310
Grating Groove Density (l/mm):1199.47
Grating Blaze:                500
Output Flipper Port:          Direct
Accessory Output Port 1:      Off
Accessory Output Port 2:      Off
Accessory Output Port 3:      Off
Accessory Input Port:         On



288.51233	18745
288.53345	17892
288.55453	17927
288.57565	17860
288.59677	17919
288.61786	18176
288.63898	18111
288.6601	18105
288.68118	17932
288.7023	17913
288.72342	17879
288.74454	17633
288.76563	17543
288.78674	17630
288.80783	17727
288.82895	17757
288.85007	17725
288.87115	17767
288.89227	17837
288.91339	17839
288.93448	17747
288.9556	17823
288.97668	17767
288.9978	17772
289.01892	17773
289.04001	17672
289.06113	17667
289.08221	17716
289.10333	17707
289.12442	17747
289.14554	17870
289.16666	17955
289.18774	17988
289.20886	17932
289.22995	17839
289.25107	17909
289.27216	17985
289.29327	18018
289.31436	18107
289.33548	18115
289.35657	18010
289.37769	18055
289.39877	17934
289.41989	17964
289.44098	18059
289.46207	18205
289.48318	18234
289.50427	18257
289.52539	18154
289.54648	18095
289.5676	18162
289.58868	18132
289.60977	18241
289.63089	18292
289.65198	18310
289.6731	18289
289.69418	18184
289.71527	18163
289.73639	18299
289.75748	18297
289.77859	18325
289.79968	18442
289.82077	18417
289.84189	18408
289.86298	18395
289.88406	18393
289.90518	18346
289.92627	18264
289.94736	18035
289.96848	17987
289.98956	17884
290.01065	17897
290.03174	17824
290.05286	17901
290.07394	17904
290.09503	17870
290.11612	17798
290.13724	17830
290.15833	17831
290.17941	17855
290.2005	17917
290.22162	18033
290.24271	18226
290.26379	18343
290.28488	18321
290.30597	18279
290.32709	18283
290.34818	18190
290.36926	18083
290.39035	18135
290.41144	18126
290.43256	18257
290.45364	18119
290.47473	18094
290.49582	18059
290.51691	18057
290.53799	17978
290.55908	18048
290.5802	18220
290.60129	18335
290.62238	18358
290.64346	18199
290.66455	18280
290.68564	18400
290.70673	18474
290.72781	18599
290.7489	18709
290.76999	18838
290.79108	18856
290.81216	18715
290.83325	18806
290.85434	18767
290.87546	18669
290.89655	18806
290.91763	18903
290.93872	18933
290.95981	18798
290.9809	18725
291.00198	18785
291.02307	18764
291.04413	18723
291.06522	18653
291.0863	18692
291.10739	18587
291.12848	18619
291.14957	18625
291.17065	18583
291.19174	18539
291.21283	18676
291.23392	18883
291.255	18970
291.27609	18966
291.29718	18981
291.31827	19021
291.33936	18990
291.36041	18774
291.3815	18788
291.40259	18893
291.42368	18970
291.44476	18804
291.46585	18653
291.48694	18760
291.508	18849
291.52908	18929
291.55017	18879
291.57126	18865
291.59235	18875
291.6134	18926
291.63449	18922
291.65558	18930
291.67667	19037
291.69775	19180
291.71881	19312
291.7399	19363
291.76099	19481
291.78207	19439
291.80313	19362
291.82422	19241
291.84531	19261
291.86639	19258
291.88745	19238
291.90854	19225
291.92963	19298
291.95068	19227
291.97177	19377
291.99286	19468
292.01392	19587
292.035	19653
292.05609	19680
292.07715	19692
292.09824	19590
292.11932	19626
292.14038	19744
292.16147	19895
292.18256	20107
292.20361	20231
292.2247	20124
292.24579	20218
292.26685	20235
292.28793	20238
292.30899	20165
292.33008	20199
292.35114	20221
292.37222	20206
292.39331	20155
292.41437	20181
292.43546	20214
292.45651	20132
292.4776	20018
292.49866	19876
292.51974	19890
292.5408	20006
292.56189	20004
292.58295	20138
292.60403	20095
292.62509	20117
292.64618	20220
292.66724	20388
292.68832	20404
292.70938	20404
292.73047	20553
292.75153	20679
292.77261	20670
292.79367	20680
292.81476	20705
292.83582	20619
292.85687	20638
292.87796	20543
292.89902	20371
292.9201	20506
292.94116	20591
292.96222	20586
292.98331	20654
293.00436	20781
293.02542	20689
293.04651	20615
293.06757	20382
293.08865	20442
293.10971	20529
293.13077	20554
293.15186	20641
293.17291	20740
293.19397	20794
293.21503	20656
293.23611	20568
293.25717	20452
293.27823	20523
293.29932	20625
293.32037	20739
293.34143	20856
293.36249	20801
293.38358	20707
293.40463	20729
293.42569	20937
293.44675	21044
293.46783	21088
293.48889	21093
293.50995	21157
293.53101	21129
293.55209	21127
293.57315	21084
293.59421	21206
293.61526	21310
293.63632	21360
293.65738	21327
293.67847	21353
293.69952	21453
293.72058	21602
293.74164	21714
293.7627	21666
293.78375	21687
293.80481	21579
293.8259	21556
293.84695	21570
293.86801	21679
293.88907	21717
293.91013	21670
293.93118	21442
293.95224	21329
293.9733	21334
293.99435	21516
294.01541	21770
294.03647	21856
294.05753	21727
294.07858	21698
294.09964	21789
294.1207	21863
294.14175	21832
294.16284	21874
294.1839	21807
294.20496	21701
294.22598	21812
294.24704	21756
294.2681	21706
294.28915	21777
294.31021	21872
294.33127	21723
294.35233	21856
294.37338	22042
294.39444	22020
294.4155	21728
294.43655	21455
294.45761	21481
294.47867	21356
294.49973	21335
294.52078	21351
294.54184	21306
294.56287	21271
294.58392	21443
294.60498	21421
294.62604	21644
294.64709	21672
294.66815	21663
294.68921	21586
294.71024	21512
294.73129	21482
294.75235	21529
294.77341	21563
294.79446	21708
294.81552	21737
294.83655	21580
294.8576	21553
294.87866	21716
294.89972	21946
294.92075	22035
294.9418	21944
294.96286	21892
294.98392	21964
295.00494	21974
295.026	22048
295.04706	22072
295.06812	22049
295.08914	22004
295.1102	22038
295.13126	22102
295.15228	22099
295.17334	22171
295.1944	22155
295.21545	22216
295.23648	22249
295.25754	22349
295.27859	22348
295.29962	22377
295.32068	22395
295.34171	22459
295.36276	22432
295.38382	22426
295.40485	22398
295.4259	22252
295.44696	22104
295.46799	22153
295.48904	22203
295.51007	22404
295.53113	22459
295.55215	22530
295.57321	22653
295.59427	22705
295.6153	22763
295.63635	22771
295.65738	22787
295.67844	22786
295.69946	22742
295.72052	22763
295.74155	22684
295.7626	22655
295.78363	22778
295.80469	22902
295.82571	22819
295.84677	22593
295.8678	22630
295.88885	22726
295.90988	22580
295.93091	22662
295.95197	22896
295.97299	23137
295.99405	23310
296.01508	23413
296.03613	23361
296.05716	23216
296.07819	23193
296.09924	23324
296.12027	23363
296.14133	23391
296.16235	23438
296.18338	23299
296.20444	23214
296.22546	23153
296.24649	23070
296.26755	23153
296.28857	23385
296.3096	23638
296.33066	23777
296.35168	23585
296.37271	23445
296.39377	23320
296.41479	23333
296.43582	23523
296.45685	23642
296.47791	23872
296.49893	23920
296.51996	23845
296.54102	23771
296.56204	23809
296.58307	23897
296.6041	23933
296.62512	23931
296.64618	24006
296.66721	23958
296.68823	23820
296.70926	23786
296.73029	23795
296.75134	23681
296.77237	23599
296.7934	23651
296.81442	23672
296.83545	23679
296.85648	23737
296.87753	23759
296.89856	23793
296.91959	23830
296.94061	23903
296.96164	24193
296.98267	24301
297.00369	24263
297.02472	24301
297.04575	24386
297.0668	24380
297.08783	24100
297.10886	24054
297.12988	24060
297.15091	24133
297.17194	24081
297.19296	23935
297.21399	23974
297.23502	24238
297.25604	24258
297.27707	24332
297.2981	24331
297.31912	24382
297.34015	24303
297.36118	24297
297.3822	24355
297.40323	24646
297.42426	24673
297.44528	24760
297.46631	24815
297.48734	24836
297.50836	24811
297.52939	24622
297.55038	24619
297.57141	24716
297.59244	24730
297.61346	24800
297.63449	24889
297.65552	24832
297.67654	24796
297.69757	24792
297.7186	25072
297.73959	25165
297.76062	25268
297.78165	25307
297.80267	25328
297.8237	25246
297.84473	25262
297.86572	25409
297.88675	25547
297.90778	25806
297.9288	26045
297.94983	25919
297.97083	25934
297.99185	26014
298.01288	26116
298.03391	26077
298.0549	26073
298.07593	26116
298.09695	26063
298.11798	25915
298.13898	25857
298.16	25855
298.18103	25940
298.20206	25848
298.22305	25636
298.24408	25620
298.26511	25672
298.2861	25845
298.30713	26108
298.32816	25951
298.34915	25889
298.37018	25919
298.3912	26229
298.4122	26374
298.43323	26287
298.45422	26319
298.47525	26367
298.49628	26359
298.51727	26320
298.5383	26320
298.55933	26250
298.58032	26341
298.60135	26243
298.62234	26109
298.64337	26285
298.66437	26315
298.68539	26355
298.70639	26307
298.72742	26382
298.74841	26370
298.76944	26295
298.79047	26001
298.81146	25946
298.83249	25958
298.85349	25862
298.87448	26135
298.89551	26298
298.9165	26484
298.93753	26256
298.95853	25949
298.97955	26074
299.00055	26040
299.02158	26227
299.04257	26318
299.0636	26446
299.08459	26573
299.10559	26459
299.12662	26342
299.14761	26467
299.16864	26695
299.18964	26725
299.21063	26691
299.23166	26801
299.25266	26840
299.27365	26758
299.29468	26656
299.31567	26638
299.33667	26608
299.3577	26793
299.37869	26814
299.39969	26936
299.42072	27150
299.44171	27345
299.46271	27260
299.4837	27292
299.50473	27387
299.52573	27307
299.54672	27256
299.56775	27300
299.58875	27584
299.60974	27566
299.63074	27550
299.65173	27447
299.67276	27290
299.69376	27336
299.71475	27399
299.73575	27597
299.75674	27665
299.77777	27679
299.79877	27484
299.81976	27494
299.84076	27570
299.86176	27494
299.88275	27546
299.90378	27697
299.92477	27539
299.94577	27614
299.96677	27533
299.98776	27557
300.00876	27650
300.02975	27622
300.05075	27533
300.07175	27592
300.09277	27714
300.11377	27793
300.13477	27846
300.15576	27868
300.17676	27603
300.19775	27420
300.21875	27312
300.23975	27092
300.26074	27083
300.28174	26953
300.30273	26992
300.32373	27026
300.34473	27257
300.36572	27263
300.38672	27133
300.40771	27027
300.42871	27066
300.44971	27121
300.4707	27385
300.4917	27622
300.5127	27929
300.53369	27847
300.55466	27615
300.57565	27677
300.59665	27795
300.61765	27837
300.63864	27873
300.65964	28006
300.68063	28049
300.70163	27929
300.72263	27708
300.74359	27418
300.76459	27399
300.78558	27479
300.80658	27605
300.82758	27983
300.84857	28119
300.86954	28234
300.89053	28004
300.91153	27977
300.93253	28016
300.95352	28189
300.97449	28142
300.99548	28336
301.01648	28649
301.03748	28580
301.05844	28419
301.07944	28238
301.10043	28220
301.12143	28196
301.1424	28202
301.16339	28244
301.18439	28289
301.20535	28156
301.22635	28005
301.24734	27918
301.26831	28003
301.28931	28001
301.3103	28024
301.33127	28230
301.35226	28287
301.37326	28182
301.39423	28097
301.41522	28077
301.43622	28299
301.45718	28515
301.47818	28624
301.49915	28636
301.52014	28780
301.54114	28569
301.5621	28485
301.5831	28318
301.60406	28223
301.62506	28208
301.64603	28247
301.66702	28370
301.68802	28590
301.70898	28748
301.72998	28834
301.75095	28851
301.77194	28786
301.79291	28807
301.8139	28870
301.83487	29038
301.85587	28997
301.87683	28951
301.8978	28995
301.91879	28986
301.93976	28889
301.96075	28957
301.98172	28939
302.00272	29230
302.02368	29350
302.04465	29426
302.06564	29359
302.08661	29189
302.1076	29278
302.12857	29390
302.14954	29742
302.17053	29928
302.1915	30017
302.21249	30072
302.23346	30060
302.25443	30091
302.27542	30133
302.29639	30041
302.31735	29980
302.33835	30098
302.35931	30164
302.38028	30013
302.40125	29978
302.42224	29916
302.44321	29973
302.46417	29788
302.48514	29467
302.50613	29375
302.5271	29414
302.54807	29494
302.56903	29596
302.59003	29640
302.61099	29507
302.63196	29555
302.65292	29844
302.67389	29951
302.69489	29951
302.71585	29882
302.73682	30051
302.75778	30221
302.77875	30177
302.79974	30053
302.82071	30154
302.84167	30310
302.86264	30154
302.88361	29864
302.90457	29836
302.92554	29944
302.9465	29954
302.96747	29878
302.98846	29929
303.00943	29932
303.0304	29863
303.05136	29713
303.07233	29746
303.09329	29916
303.11426	30005
303.13522	30164
303.15619	30149
303.17715	30138
303.19812	30115
303.21909	30030
303.24005	30061
303.26102	30033
303.28198	29969
303.30295	30068
303.32391	30145
303.34488	30133
303.36584	30001
303.38681	30045
303.40778	30168
303.42874	30280
303.44971	30446
303.47064	30414
303.49161	30503
303.51257	30548
303.53354	30378
303.5545	30304
303.57547	30585
303.59644	30887
303.6174	31128
303.63837	31186
303.6593	31053
303.68027	31166
303.70123	31229
303.7222	31250
303.74316	31234
303.76413	31248
303.78506	31246
303.80603	31157
303.827	31177
303.84796	31313
303.86893	31205
303.88986	31076
303.91083	30670
303.93179	30619
303.95276	30869
303.97369	31166
303.99466	31495
304.01563	31596
304.03656	31411
304.05753	31256
304.07849	31438
304.09946	31727
304.12039	31597
304.14136	31639
304.16232	31595
304.18326	31619
304.20422	31751
304.22519	31539
304.24612	31601
304.26709	31657
304.28806	31542
304.30899	31329
304.32996	31308
304.35089	31583
304.37186	31546
304.39282	31400
304.41376	31357
304.43472	31500
304.45566	31519
304.47662	31245
304.49756	30993
304.51852	30793
304.53949	30825
304.56042	30942
304.58139	31124
304.60233	31264
304.62329	31309
304.64423	31115
304.66519	30932
304.68613	30990
304.70709	31005
304.72803	31083
304.74899	31390
304.76993	31505
304.79086	31646
304.81183	31486
304.83276	31448
304.85373	31672
304.87466	31943
304.89563	32004
304.91656	31967
304.9375	31823
304.95847	31660
304.9794	31591
305.00037	31528
305.0213	31662
305.04224	31855
305.0632	31805
305.08414	31639
305.10507	31934
305.12604	32198
305.14697	32214
305.16791	32088
305.18887	32012
305.20981	31996
305.23074	32062
305.25171	32174
305.27264	32306
305.29358	32537
305.31451	32508
305.33548	32525
305.35641	32477
305.37735	32351
305.39828	32062
305.41925	32080
305.44019	32367
305.46112	32488
305.48206	32321
305.50299	32338
305.52396	32486
305.54489	32482
305.56583	32640
305.58676	32495
305.6077	32364
305.62866	32303
305.6496	32215
305.67053	32160
305.69147	32275
305.7124	32373
305.73334	32300
305.75427	32246
305.77521	32455
305.79617	32647
305.81711	32636
305.83804	32659
305.85898	32481
305.87991	32480
305.90085	32300
305.92178	32139
305.94272	32118
305.96365	31815
305.98459	31692
306.00552	31870
306.02646	31931
306.04739	31960
306.06833	31911
306.08926	31686
306.1102	31586
306.13113	31461
306.15207	31628
306.173	32036
306.19394	32274
306.21487	32557
306.23581	32490
306.25674	32260
306.27768	32413
306.29861	32569
306.31952	32554
306.34045	32533
306.36139	32777
306.38232	32793
306.40326	32532
306.42419	32311
306.44513	32066
306.46606	31929
306.48697	31996
306.5079	32388
306.52884	32812
306.54977	32919
306.57071	32915
306.59164	32614
306.61255	32640
306.63348	32869
306.65442	33144
306.67535	33284
306.69629	33526
306.71719	33591
306.73813	33637
306.75906	33302
306.78	33446
306.8009	33454
306.82184	33364
306.84277	33254
306.86368	33283
306.88461	33231
306.90555	33132
306.92648	33082
306.94739	33068
306.96832	33061
306.98926	33086
307.01016	33062
307.0311	33208
307.05203	33201
307.07294	32994
307.09387	32922
307.11478	32847
307.13571	33201
307.15665	33264
307.17755	33563
307.19849	33808
307.21939	33745
307.24033	33725
307.26126	33566
307.28217	33428
307.3031	33108
307.32401	33158
307.34494	33229
307.36584	33358
307.38678	33680
307.40768	33570
307.42862	33512
307.44952	33484
307.47046	33385
307.49136	33335
307.5123	33329
307.5332	33305
307.55414	33308
307.57504	33342
307.59598	33375
307.61688	33210
307.63779	33184
307.65872	33149
307.67963	33244
307.70056	33465
307.72147	33658
307.7424	33605
307.76331	33485
307.78421	33434
307.80515	33248
307.82605	33540
307.84695	33650
307.86789	33901
307.88879	34239
307.9097	34018
307.93063	33942
307.95154	34081
307.97244	34333
307.99338	34480
308.01428	34562
308.03519	34564
308.05612	34360
308.07703	34328
308.09793	34350
308.11884	34433
308.13977	34327
308.16068	34062
308.18158	33849
308.20248	33744
308.22339	33718
308.24432	33784
308.26523	34060
308.28613	34152
308.30704	33900
308.32794	34057
308.34888	34258
308.36978	34482
308.39069	34298
308.41159	34337
308.4325	34528
308.4534	34654
308.4743	34624
308.49524	34563
308.51614	34598
308.53705	34613
308.55795	34507
308.57886	34268
308.59976	34174
308.62067	34462
308.64157	34291
308.66248	34352
308.68338	34204
308.70428	34231
308.72519	34108
308.74609	34067
308.767	33965
308.7879	34296
308.80881	34371
308.82971	34390
308.85062	34424
308.87152	34301
308.89243	34248
308.91333	34187
308.93423	34092
308.95514	33932
308.97604	33652
308.99695	33637
309.01785	33507
309.03876	33365
309.05966	33071
309.08057	32803
309.10147	32840
309.12238	32884
309.14325	32856
309.16415	33017
309.18506	32968
309.20596	32699
309.22687	32407
309.24777	32204
309.26868	32231
309.28955	32459
309.31046	32883
309.33136	32920
309.35226	33106
309.37317	33255
309.39404	33269
309.41495	33104
309.43585	32995
309.45676	32915
309.47763	32871
309.49854	32552
309.51944	32640
309.54034	32661
309.56122	32819
309.58212	32619
309.60303	32480
309.62393	32553
309.64481	32812
309.66571	33035
309.68661	33082
309.70749	33146
309.72839	32796
309.7493	32822
309.77017	33122
309.79108	33335
309.81195	33310
309.83286	33254
309.85376	33335
309.87463	33463
309.89554	33427
309.91644	33187
309.93732	33096
309.95822	33272
309.9791	33354
310	33038
310.02087	33172
310.04178	33488
310.06265	33420
310.08356	33773
310.10443	34115
310.12534	34118
310.14624	34031
310.16711	33620
310.18799	33385
310.20889	33325
310.22977	33208
310.25067	33648
310.27155	33841
310.29245	34030
310.31332	33845
310.33423	33606
310.3551	33475
310.37601	33549
310.39688	33540
310.41776	33714
310.43866	34031
310.45953	34278
310.48044	34415
310.50131	34205
310.52219	34123
310.54309	34270
310.56396	34329
310.58484	34534
310.60574	34333
310.62662	34280
310.64749	34480
310.6684	34115
310.68927	33988
310.71014	34000
310.73105	33817
310.75192	33975
310.7728	34329
310.79367	34404
310.81458	34661
310.83545	34624
310.85632	34533
310.8772	34720
310.8981	34813
310.91898	34975
310.93985	35023
310.96072	35147
310.9816	35086
311.0025	34920
311.02338	35086
311.04425	35137
311.06512	35097
311.086	35079
311.10687	35009
311.12775	34917
311.14865	35136
311.16953	34904
311.1904	34739
311.21127	34704
311.23215	34784
311.25302	35104
311.2739	34990
311.29477	35064
311.31564	34712
311.33652	34465
311.35739	34649
311.3783	34865
311.39917	34953
311.42004	34992
311.44092	35161
311.46179	35112
311.48267	35193
311.50354	35066
311.52441	34827
311.54529	34662
311.56616	34373
311.58704	34103
311.60788	33762
311.62875	33832
311.64963	33636
311.6705	33352
311.69138	33558
311.71225	33702
311.73312	33639
311.754	33550
311.77487	33750
311.79575	33539
311.81662	33634
311.83746	33802
311.85834	33900
311.87921	34681
311.90009	34635
311.92096	34637
311.94183	34406
311.96271	34481
311.98355	34663
312.00443	34767
312.0253	34760
312.04617	34821
312.06705	34643
312.08789	34419
312.10876	34246
312.12964	34127
312.15051	33904
312.17136	34173
312.19223	34567
312.2131	34932
312.23395	34969
312.25482	34848
312.2757	34436
312.29657	34485
312.31741	34668
312.33829	34986
312.35916	35421
312.38	35477
312.40088	35605
312.42175	35398
312.4426	35369
312.46347	35354
312.48431	35203
312.50519	35130
312.52606	35299
312.54691	35169
312.56778	35198
312.58862	35281
312.6095	35184
312.63037	35318
312.65121	35239
312.67209	35239
312.69293	35074
312.71381	35128
312.73465	34972
312.75552	34702
312.77637	34806
312.79724	34926
312.81808	34925
312.83896	35375
312.8598	35244
312.88068	35640
312.90152	35472
312.92239	35431
312.94324	35676
312.96411	35439
312.98495	35538
313.0058	35594
313.02667	35559
313.04752	35831
313.06839	35843
313.08923	35942
313.11008	35738
313.13095	35748
313.15179	35809
313.17267	35397
313.19351	35416
313.21436	35253
313.23523	35403
313.25607	35587
313.27692	35637
313.29779	35336
313.31863	35244
313.33948	35049
313.36032	35469
313.3812	35657
313.40204	35601
313.42288	35485
313.44376	35322
313.4646	35295
313.48544	35079
313.50629	35489
313.52713	35453
313.548	35795
313.56885	36154
313.58969	35801
313.61053	35946
313.63138	35831
313.65225	35938
313.6731	36068
313.69394	36152
313.71478	36175
313.73563	36221
313.75647	35937
313.77734	36007
313.79819	36213
313.81903	35788
313.83987	35521
313.86072	35014
313.88156	35240
313.9024	35281
313.92325	35505
313.94409	35626
313.96494	35834
313.98578	35814
314.00662	35735
314.02747	36262
314.04831	36240
314.06915	36030
314.09	36044
314.11084	36391
314.13168	36286
314.15253	36398
314.17337	36177
314.19421	36436
314.21506	36330
314.2359	36123
314.25674	35898
314.27759	35908
314.29843	35979
314.31927	36167
314.34012	36091
314.36096	36259
314.38181	36304
314.40265	36060
314.42346	35746
314.44431	35646
314.46515	35719
314.48599	35809
314.50684	35782
314.52768	35871
314.54849	35744
314.56934	35647
314.59018	35700
314.61102	35612
314.63187	35579
314.65271	35440
314.67352	35782
314.69437	35774
314.71521	35715
314.73605	35768
314.75687	35643
314.77771	35868
314.79855	35892
314.81937	36105
314.84021	36274
314.86105	36632
314.8819	36059
314.90271	35988
314.92355	35939
314.9444	36171
314.96521	36329
314.98605	36229
315.0069	36585
315.02771	36452
315.04855	36874
315.0694	36857
315.09021	36709
315.11105	36618
315.13187	36652
315.15271	36721
315.17355	36518
315.19437	36493
315.21521	36795
315.23602	36780
315.25687	36552
315.27768	36319
315.29852	36225
315.31934	36391
315.34018	36700
315.36099	36884
315.38184	36911
315.40265	36565
315.42349	36221
315.44431	36600
315.46515	36715
315.48596	36563
315.50681	36531
315.52762	36630
315.54846	36364
315.56927	36546
315.59009	36423
315.61093	36337
315.63174	36437
315.65259	36188
315.6734	36328
315.69421	36511
315.71506	36641
315.73587	36644
315.75668	36533
315.77753	36770
315.79834	36575
315.81918	36593
315.84	36158
315.86081	36059
315.88162	35830
315.90247	35903
315.92328	35957
315.94409	36360
315.96494	36368
315.98575	36403
316.00656	36059
316.02737	36252
316.04822	36110
316.06903	36225
316.08984	36485
316.11066	36740
316.13147	37031
316.15231	37107
316.17313	36793
316.19394	36937
316.21475	37016
316.23557	37070
316.25641	36888
316.27722	37015
316.29803	36937
316.31885	36891
316.33966	36700
316.36047	36603
316.38129	36246
316.4021	36257
316.42291	36520
316.44376	36755
316.46457	37023
316.48538	37442
316.5062	37449
316.52701	37310
316.54782	37387
316.56863	37277
316.58945	37579
316.61026	37680
316.63107	37749
316.65189	38016
316.6727	37806
316.69351	37833
316.71432	37840
316.73514	37649
316.75595	37694
316.77676	37749
316.79758	37637
316.81839	37721
316.8392	37406
316.85999	37220
316.8808	37429
316.90161	37331
316.92242	37573
316.94324	37782
316.96405	37602
316.98486	37366
317.00568	36893
317.02646	37111
317.04727	37194
317.06808	37584
317.0889	37732
317.10971	37599
317.13052	38004
317.15131	38128
317.17212	38030
317.19293	37544
317.21375	37504
317.23453	37299
317.25534	37380
317.27615	37015
317.29697	37077
317.31775	36686
317.33856	36722
317.35938	36934
317.38019	36893
317.40097	36928
317.42178	37015
317.4426	36855
317.46338	36695
317.48419	36858
317.505	37144
317.52579	37391
317.5466	37845
317.56741	38211
317.5882	37857
317.60901	37911
317.62979	37501
317.6506	38175
317.67142	37886
317.6922	38097
317.71301	38054
317.7338	37889
317.75461	37641
317.77542	37410
317.7962	37161
317.81702	37435
317.8378	37603
317.85861	37851
317.87939	37939
317.90021	37944
317.92099	37621
317.9418	37521
317.96259	37710
317.9834	37934
318.00418	38339
318.02496	38550
318.04578	38659
318.06656	38801
318.08737	38504
318.10815	38536
318.12897	38585
318.14975	38585
318.17053	38430
318.19135	38583
318.21213	38352
318.23291	38281
318.25372	38372
318.27451	38603
318.29532	38355
318.3161	38464
318.33688	38373
318.3577	38050
318.37848	38160
318.39926	37956
318.42004	38081
318.44086	38127
318.46164	38143
318.48242	38555
318.5032	38742
318.52402	38755
318.5448	38895
318.56558	38751
318.58636	38762
318.60718	38645
318.62796	38752
318.64874	38816
318.66953	38805
318.69031	39048
318.71112	38967
318.7319	38983
318.75269	38998
318.77347	39080
318.79425	38935
318.81503	38748
318.83582	38584
318.85663	38457
318.87741	38441
318.89819	38437
318.91898	38255
318.93976	38441
318.96054	38064
318.98132	38007
319.00211	37908
319.02289	38477
319.04367	38511
319.06445	38483
319.08524	38392
319.10602	38654
319.1268	38487
319.14758	38198
319.16837	38472
319.18915	38478
319.20993	38758
319.23071	39189
319.2515	38961
319.27228	39009
319.29306	39372
319.31384	39244
319.33463	39324
319.35541	39160
319.37619	39311
319.39697	39074
319.41772	39087
319.43851	38959
319.45929	39036
319.48007	39159
319.50085	38706
319.52164	38538
319.54242	38576
319.56317	38583
319.58395	38604
319.60474	38955
319.62552	39117
319.6463	38875
319.66705	39185
319.68784	39101
319.70862	39646
319.7294	39290
319.75015	39443
319.77094	39513
319.79172	39445
319.8125	39676
319.83325	39679
319.85403	39476
319.87482	39447
319.89557	39399
319.91635	39209
319.93713	39388
319.95789	39320
319.97867	39222
319.99945	39377
320.0202	39461
320.04099	39330
320.06177	38725
320.08252	38560
320.1033	38184
320.12405	38431
320.14484	38167
320.16562	38212
320.18637	38260
320.20715	38366
320.22791	38350
320.24869	38266
320.26944	38471
320.29022	38600
320.31097	38544
320.33176	38766
320.35251	38852
320.37329	38846
320.39404	38691
320.41483	38697
320.43558	38482
320.45636	38972
320.47711	38904
320.49789	39096
320.51865	39216
320.53943	39129
320.56018	38987
320.58093	38953
320.60172	39007
320.62247	39056
320.64325	39370
320.664	39025
320.68475	39249
320.70554	39479
320.72629	39588
320.74704	39479
320.76782	39624
320.78857	39700
320.80933	39624
320.83011	39785
320.85086	39896
320.87161	40012
320.89236	40152
320.91315	39988
320.9339	40170
320.95465	39665
320.97543	40100
320.99619	39857
321.01694	40085
321.03769	39967
321.05844	39858
321.07922	39606
321.09998	39835
321.12073	39877
321.14148	39935
321.16223	39767
321.18301	39681
321.20377	39720
321.22452	39442
321.24527	39362
321.26602	39653
321.28677	39639
321.30753	39379
321.32828	39563
321.34903	39508
321.36981	39709
321.39056	39920
321.41132	39450
321.43207	39342
321.45282	39057
321.47357	39072
321.49432	38696
321.51508	38829
321.53583	38818
321.55658	38965
321.57733	38952
321.59808	38990
321.61884	39224
321.63959	38812
321.66034	39120
321.68109	38897
321.70184	39035
321.7226	39307
321.74335	39762
321.76407	39819
321.78482	40058
321.80557	39973
321.82632	39698
321.84708	40311
321.86783	40010
321.88858	39875
321.90933	39975
321.93005	39906
321.95081	39641
321.97156	39730
321.99231	39405
322.01306	39483
322.03381	39529
322.05453	39418
322.07529	39537
322.09604	40025
322.11679	39988
322.13751	40203
322.15826	40138
322.17902	40122
322.19977	40231
322.22049	40609
322.24124	40416
322.26199	40780
322.28275	40967
322.30347	40730
322.32422	40908
322.34497	40848
322.36569	40854
322.38644	40596
322.4072	40551
322.42792	40509
322.44867	40530
322.46942	40857
322.49014	40579
322.51089	40783
322.53162	40878
322.55237	40878
322.57309	40936
322.59384	40718
322.61459	40897
322.63531	40350
322.65607	40197
322.67679	40032
322.69754	40449
322.71826	40456
322.73901	40667
322.75974	41031
322.78049	40954
322.80121	41256
322.82196	40938
322.84268	40838
322.86343	40673
322.88416	40880
322.90491	40754
322.92563	40942
322.94635	40532
322.9671	40329
322.98782	40239
323.00858	40214
323.0293	40329
323.05002	40269
323.07077	40108
323.09149	40382
323.11221	39984
323.13297	40418
323.15369	40423
323.17441	40939
323.19516	41045
323.21588	41303
323.2366	40993
323.25735	41132
323.27808	41101
323.2988	40887
323.31955	41208
323.34027	41013
323.36099	41069
323.38171	40851
323.40247	40909
323.42319	41023
323.44391	40599
323.46463	40956
323.48535	40952
323.5061	41160
323.52682	41511
323.54755	41002
323.56827	41065
323.58899	40882
323.60971	41196
323.63043	41043
323.65118	41508
323.67191	41539
323.69263	41952
323.71335	41644
323.73407	41594
323.75479	41771
323.77551	42001
323.79623	42177
323.81696	42392
323.83768	42079
323.8584	42129
323.87912	41862
323.89984	41952
323.92056	41760
323.94128	41852
323.96201	41460
323.98273	41517
324.00345	41234
324.02417	41521
324.04489	41455
324.06561	41639
324.08633	41575
324.10706	41870
324.12778	41864
324.1485	41745
324.16922	42050
324.18994	42103
324.21066	42104
324.23135	42312
324.25208	42583
324.2728	42353
324.29352	42414
324.31424	42409
324.33496	42073
324.35568	42356
324.37637	42404
324.39709	42585
324.41782	42250
324.43854	42508
324.45926	42320
324.47995	42400
324.50067	42083
324.52139	42094
324.54211	42051
324.56281	42144
324.58353	42039
324.60425	41685
324.62494	41897
324.64566	41674
324.66638	41668
324.6871	41990
324.70779	42190
324.72852	42090
324.74924	42208
324.76993	42234
324.79065	42010
324.81134	42023
324.83206	41830
324.85278	42442
324.87347	42342
324.8942	42372
324.91492	42338
324.93561	42389
324.95633	42373
324.97702	42290
324.99774	42378
325.01843	42182
325.03915	42326
325.05984	42339
325.08057	42170
325.10126	42267
325.12198	42519
325.14267	42012
325.16339	41953
325.18408	42070
325.2048	42021
325.22549	42174
325.24622	42318
325.26691	42540
325.28763	42230
325.30832	42355
325.32901	42339
325.34973	42526
325.37042	42112
325.39114	42389
325.41183	42035
325.43253	42430
325.45325	42432
325.47394	42295
325.49463	42300
325.51535	42180
325.53604	41987
325.55673	41873
325.57745	41539
325.59814	41780
325.61884	41655
325.63953	41525
325.66025	41526
325.68094	41319
325.70163	41295
325.72232	40941
325.74304	40819
325.76373	40563
325.78442	40461
325.80511	40609
325.82581	40625
325.84653	40630
325.86722	40735
325.88791	40725
325.9086	41026
325.92929	40614
325.94998	40741
325.9707	41068
325.99139	40958
326.01208	41308
326.03278	41086
326.05347	40670
326.07416	40884
326.09485	41018
326.11554	41297
326.13623	41407
326.15692	41205
326.17761	41436
326.1983	41321
326.21899	40795
326.23969	41032
326.26038	40746
326.28107	40745
326.30176	41058
326.32245	41061
326.34314	41426
326.36383	41671
326.38452	41569
326.40521	41569
326.4259	41623
326.44659	41523
326.46729	41735
326.48798	41857
326.50867	41991
326.52936	42096
326.55005	42033
326.57071	42129
326.5914	41764
326.61209	41724
326.63278	41381
326.65347	41671
326.67416	41753
326.69485	41351
326.71552	41451
326.73621	41393
326.7569	41465
326.77759	41463
326.79825	41624
326.81894	41432
326.83963	41376
326.86032	41310
326.88098	41308
326.90167	41486
326.92236	41434
326.94305	41509
326.96371	41678
326.98441	41548
327.0051	41810
327.02576	41651
327.04645	41822
327.06714	41307
327.0878	41191
327.10849	41106
327.12918	41200
327.14984	41144
327.17053	41037
327.19119	40959
327.21188	40900
327.23257	40813
327.25323	40715
327.27393	41100
327.29459	40885
327.31528	40787
327.33594	40974
327.35663	41243
327.37729	41335
327.39798	41888
327.41864	41595
327.43933	41905
327.45999	41783
327.48068	41717
327.50134	41489
327.52203	41623
327.54269	41579
327.56339	42048
327.58405	41715
327.60474	41804
327.6254	41661
327.64606	41094
327.66675	41420
327.68741	41411
327.70807	41392
327.72876	41706
327.74942	42095
327.77011	42067
327.79077	41862
327.81143	41531
327.83212	41720
327.85278	42056
327.87344	42088
327.8941	42046
327.91479	42184
327.93546	42162
327.95612	41917
327.97681	42045
327.99747	42029
328.01813	42169
328.03879	42159
328.05945	42045
328.08014	42379
328.1008	42264
328.12146	42398
328.14212	42150
328.16278	42238
328.18347	42299
328.20413	41961
328.22479	41941
328.24545	42150
328.26611	42028
328.28677	42208
328.30743	41859
328.32809	41844
328.34879	42328
328.36945	42262
328.39011	42369
328.41077	42383
328.43143	42554
328.45209	42353
328.47275	41959
328.49341	42025
328.51407	42116
328.53473	41918
328.55539	41972
328.57605	42023
328.59671	42079
328.61737	41786
328.63803	41696
328.65869	41805
328.67935	42004
328.70001	41705
328.72067	42359
328.74133	41907
328.76196	42467
328.78262	42316
328.80328	42790
328.82394	42845
328.8446	42920
328.86526	42992
328.88593	43054
328.90659	42698
328.92722	42964
328.94788	42784
328.96854	42842
328.9892	42870
329.00986	42738
329.03049	42751
329.05115	42904
329.07181	42874
329.09247	42975
329.11313	42971
329.13376	43253
329.15442	43300
329.17508	43262
329.19571	43070
329.21637	43127
329.23703	42998
329.25769	43169
329.27832	43182
329.29898	43076
329.31964	43377
329.34027	43663
329.36093	43757
329.38156	43661
329.40222	43768
329.42288	44082
329.44351	44201
329.46417	43903
329.4848	44015
329.50546	43579
329.52612	43540
329.54675	43658
329.56741	43450
329.58804	43130
329.6087	43459
329.62933	43274
329.64999	43494
329.67062	43668
329.69128	43529
329.71191	43906
329.73257	44139
329.7532	44015
329.77386	44173
329.79449	43813
329.81516	44422
329.83578	44552
329.85641	44258
329.87708	44627
329.89771	44459
329.91837	44342
329.939	44262
329.95963	44460
329.98029	44370
330.00092	44287
330.02158	44137
330.04221	44318
330.06284	44500
330.0835	44361
330.10413	44007
330.12476	44044
330.14539	43894
330.16605	43944
330.18668	43943
330.20731	43694
330.22794	43502
330.2486	43705
330.26923	43760
330.28986	43453
330.31049	43629
330.33115	43604
330.35178	43322
330.37241	43569
330.39304	43278
330.41367	43456
330.43433	43267
330.45496	43573
330.47559	43352
330.49622	43439
330.51685	43372
330.53748	43232
330.55811	43310
330.57874	43147
330.59937	43462
330.62003	43169
330.64066	43451
330.66129	43379
330.68192	43272
330.70255	43173
330.72318	43254
330.7438	42960
330.76443	43071
330.78506	42971
330.80569	43230
330.82632	43323
330.84695	43264
330.86758	43266
330.88821	43295
330.90884	42997
330.92947	43227
330.9501	42956
330.9707	43120
330.99133	43260
331.01196	42807
331.03259	43252
331.05322	42881
331.07385	43284
331.09448	43343
331.11511	43216
331.13571	43291
331.15634	43360
331.17697	43175
331.1976	43125
331.21823	42628
331.23886	41426
331.25946	39024
