Date and Time:                Sun Jan 29 14:32:48.000 2023
Software Version:             4.31.30023.0
Temperature (C):              -40
Model:                        DU940P_BU2
Data Type:                    Counts
Acquisition Mode:             Single Scan
Trigger Mode:                 Internal
Exposure Time (secs):         0.22
Readout Mode:                 Full Vertical Binning
Horizontal binning:           1
Extended Dynamic Range:       off
Horizontally flipped:         false
Vertical Shift Speed (usecs): 14.51
Pixel Readout Rate (MHz):     3
Baseline Clamp:               ON
Clock Amplitude:              Normal
Output Amplifier:             High Capacity
Serial Number:                23634
Pre-Amplifier Gain:           1.000000
Spurious Noise Filter Mode:   No Filter
Photon counted:               false
Data Averaging Filter Mode:   No Filter
SR500i:
Serial Number:                
Wavelength (nm):              310
Grating Groove Density (l/mm):1199.47
Grating Blaze:                500
Output Flipper Port:          Direct
Accessory Output Port 1:      Off
Accessory Output Port 2:      Off
Accessory Output Port 3:      Off
Accessory Input Port:         On



288.51233	18796
288.53345	17906
288.55453	17841
288.57565	17843
288.59677	17996
288.61786	18146
288.63898	18085
288.6601	18045
288.68118	17966
288.7023	17958
288.72342	17843
288.74454	17611
288.76563	17545
288.78674	17644
288.80783	17775
288.82895	17717
288.85007	17700
288.87115	17772
288.89227	17893
288.91339	17851
288.93448	17727
288.9556	17817
288.97668	17865
288.9978	17780
289.01892	17787
289.04001	17755
289.06113	17654
289.08221	17727
289.10333	17654
289.12442	17746
289.14554	17850
289.16666	17956
289.18774	18026
289.20886	17904
289.22995	17834
289.25107	17916
289.27216	18056
289.29327	18009
289.31436	18149
289.33548	18177
289.35657	18054
289.37769	18052
289.39877	17935
289.41989	17990
289.44098	18039
289.46207	18206
289.48318	18259
289.50427	18237
289.52539	18159
289.54648	18109
289.5676	18139
289.58868	18139
289.60977	18170
289.63089	18334
289.65198	18341
289.6731	18288
289.69418	18190
289.71527	18226
289.73639	18282
289.75748	18390
289.77859	18350
289.79968	18397
289.82077	18470
289.84189	18437
289.86298	18445
289.88406	18439
289.90518	18295
289.92627	18265
289.94736	18079
289.96848	17971
289.98956	17892
290.01065	17929
290.03174	17837
290.05286	17833
290.07394	17900
290.09503	17848
290.11612	17841
290.13724	17870
290.15833	17853
290.17941	17858
290.2005	17901
290.22162	18037
290.24271	18140
290.26379	18284
290.28488	18306
290.30597	18292
290.32709	18308
290.34818	18236
290.36926	18115
290.39035	18025
290.41144	18132
290.43256	18250
290.45364	18171
290.47473	18074
290.49582	18005
290.51691	18024
290.53799	17996
290.55908	18012
290.5802	18177
290.60129	18384
290.62238	18345
290.64346	18210
290.66455	18223
290.68564	18301
290.70673	18551
290.72781	18603
290.7489	18705
290.76999	18814
290.79108	18788
290.81216	18765
290.83325	18845
290.85434	18712
290.87546	18726
290.89655	18814
290.91763	18934
290.93872	18998
290.95981	18865
290.9809	18717
291.00198	18727
291.02307	18723
291.04413	18740
291.06522	18714
291.0863	18740
291.10739	18699
291.12848	18584
291.14957	18623
291.17065	18569
291.19174	18553
291.21283	18723
291.23392	18853
291.255	18924
291.27609	18927
291.29718	19011
291.31827	19067
291.33936	18931
291.36041	18788
291.3815	18855
291.40259	18889
291.42368	18874
291.44476	18875
291.46585	18720
291.48694	18784
291.508	18926
291.52908	18891
291.55017	18823
291.57126	18860
291.59235	18845
291.6134	18932
291.63449	18903
291.65558	18945
291.67667	19023
291.69775	19114
291.71881	19378
291.7399	19364
291.76099	19471
291.78207	19510
291.80313	19293
291.82422	19219
291.84531	19248
291.86639	19305
291.88745	19308
291.90854	19332
291.92963	19221
291.95068	19325
291.97177	19396
291.99286	19465
292.01392	19659
292.035	19687
292.05609	19712
292.07715	19714
292.09824	19583
292.11932	19579
292.14038	19679
292.16147	19861
292.18256	20053
292.20361	20212
292.2247	20241
292.24579	20205
292.26685	20299
292.28793	20238
292.30899	20187
292.33008	20178
292.35114	20258
292.37222	20242
292.39331	20139
292.41437	20174
292.43546	20196
292.45651	20181
292.4776	20035
292.49866	19871
292.51974	19897
292.5408	19924
292.56189	19998
292.58295	20163
292.60403	20115
292.62509	20084
292.64618	20239
292.66724	20404
292.68832	20477
292.70938	20435
292.73047	20526
292.75153	20618
292.77261	20742
292.79367	20681
292.81476	20721
292.83582	20677
292.85687	20713
292.87796	20493
292.89902	20362
292.9201	20468
292.94116	20630
292.96222	20626
292.98331	20649
293.00436	20721
293.02542	20724
293.04651	20554
293.06757	20393
293.08865	20363
293.10971	20532
293.13077	20541
293.15186	20656
293.17291	20758
293.19397	20686
293.21503	20661
293.23611	20548
293.25717	20529
293.27823	20529
293.29932	20598
293.32037	20714
293.34143	20827
293.36249	20784
293.38358	20727
293.40463	20685
293.42569	20946
293.44675	21032
293.46783	21098
293.48889	21083
293.50995	21132
293.53101	21107
293.55209	21121
293.57315	21048
293.59421	21234
293.61526	21364
293.63632	21372
293.65738	21334
293.67847	21426
293.69952	21420
293.72058	21642
293.74164	21739
293.7627	21769
293.78375	21746
293.80481	21636
293.8259	21503
293.84695	21568
293.86801	21717
293.88907	21721
293.91013	21642
293.93118	21447
293.95224	21372
293.9733	21375
293.99435	21474
294.01541	21685
294.03647	21952
294.05753	21695
294.07858	21702
294.09964	21817
294.1207	21952
294.14175	21856
294.16284	21852
294.1839	21767
294.20496	21853
294.22598	21830
294.24704	21755
294.2681	21711
294.28915	21818
294.31021	21801
294.33127	21815
294.35233	21889
294.37338	22023
294.39444	21927
294.4155	21756
294.43655	21494
294.45761	21364
294.47867	21408
294.49973	21393
294.52078	21332
294.54184	21359
294.56287	21208
294.58392	21397
294.60498	21490
294.62604	21642
294.64709	21702
294.66815	21698
294.68921	21601
294.71024	21510
294.73129	21519
294.75235	21571
294.77341	21608
294.79446	21681
294.81552	21753
294.83655	21603
294.8576	21567
294.87866	21744
294.89972	21970
294.92075	22050
294.9418	21974
294.96286	21890
294.98392	21897
295.00494	21995
295.026	22060
295.04706	22074
295.06812	22079
295.08914	22016
295.1102	22111
295.13126	22072
295.15228	22181
295.17334	22170
295.1944	22208
295.21545	22198
295.23648	22319
295.25754	22296
295.27859	22300
295.29962	22393
295.32068	22344
295.34171	22329
295.36276	22458
295.38382	22480
295.40485	22391
295.4259	22269
295.44696	22177
295.46799	22125
295.48904	22165
295.51007	22394
295.53113	22425
295.55215	22578
295.57321	22660
295.59427	22687
295.6153	22729
295.63635	22792
295.65738	22771
295.67844	22812
295.69946	22708
295.72052	22684
295.74155	22647
295.7626	22666
295.78363	22710
295.80469	22889
295.82571	22815
295.84677	22633
295.8678	22553
295.88885	22611
295.90988	22605
295.93091	22681
295.95197	22859
295.97299	23152
295.99405	23342
296.01508	23365
296.03613	23378
296.05716	23265
296.07819	23250
296.09924	23292
296.12027	23311
296.14133	23427
296.16235	23421
296.18338	23375
296.20444	23243
296.22546	23168
296.24649	23139
296.26755	23194
296.28857	23353
296.3096	23637
296.33066	23737
296.35168	23571
296.37271	23486
296.39377	23390
296.41479	23356
296.43582	23517
296.45685	23696
296.47791	23833
296.49893	23966
296.51996	23862
296.54102	23749
296.56204	23786
296.58307	23860
296.6041	23903
296.62512	23997
296.64618	24025
296.66721	23979
296.68823	23866
296.70926	23821
296.73029	23748
296.75134	23734
296.77237	23709
296.7934	23661
296.81442	23751
296.83545	23621
296.85648	23720
296.87753	23696
296.89856	23762
296.91959	23827
296.94061	23881
296.96164	24145
296.98267	24319
297.00369	24310
297.02472	24308
297.04575	24393
297.0668	24330
297.08783	24123
297.10886	24015
297.12988	24025
297.15091	24138
297.17194	24077
297.19296	24005
297.21399	24023
297.23502	24192
297.25604	24315
297.27707	24404
297.2981	24303
297.31912	24396
297.34015	24257
297.36118	24248
297.3822	24464
297.40323	24588
297.42426	24821
297.44528	24780
297.46631	24819
297.48734	24893
297.50836	24844
297.52939	24605
297.55038	24583
297.57141	24736
297.59244	24764
297.61346	24850
297.63449	24851
297.65552	24808
297.67654	24839
297.69757	24855
297.7186	25139
297.73959	25153
297.76062	25276
297.78165	25290
297.80267	25354
297.8237	25253
297.84473	25202
297.86572	25390
297.88675	25680
297.90778	25771
297.9288	26052
297.94983	25993
297.97083	25955
297.99185	26084
298.01288	26135
298.03391	26063
298.0549	26077
298.07593	26077
298.09695	26014
298.11798	25956
298.13898	25888
298.16	25932
298.18103	25867
298.20206	25746
298.22305	25667
298.24408	25603
298.26511	25672
298.2861	25900
298.30713	26103
298.32816	25940
298.34915	25852
298.37018	25906
298.3912	26208
298.4122	26468
298.43323	26395
298.45422	26309
298.47525	26304
298.49628	26447
298.51727	26337
298.5383	26213
298.55933	26329
298.58032	26330
298.60135	26214
298.62234	26149
298.64337	26317
298.66437	26318
298.68539	26321
298.70639	26304
298.72742	26411
298.74841	26373
298.76944	26226
298.79047	26096
298.81146	25970
298.83249	25974
298.85349	25896
298.87448	26040
298.89551	26320
298.9165	26436
298.93753	26260
298.95853	26050
298.97955	25969
299.00055	26113
299.02158	26160
299.04257	26344
299.0636	26507
299.08459	26562
299.10559	26392
299.12662	26358
299.14761	26494
299.16864	26746
299.18964	26822
299.21063	26790
299.23166	26762
299.25266	26820
299.27365	26688
299.29468	26617
299.31567	26684
299.33667	26644
299.3577	26846
299.37869	26729
299.39969	26979
299.42072	27142
299.44171	27300
299.46271	27257
299.4837	27295
299.50473	27280
299.52573	27325
299.54672	27187
299.56775	27372
299.58875	27565
299.60974	27572
299.63074	27529
299.65173	27446
299.67276	27331
299.69376	27377
299.71475	27451
299.73575	27709
299.75674	27700
299.77777	27606
299.79877	27460
299.81976	27490
299.84076	27448
299.86176	27525
299.88275	27619
299.90378	27591
299.92477	27610
299.94577	27601
299.96677	27484
299.98776	27596
300.00876	27732
300.02975	27620
300.05075	27562
300.07175	27643
300.09277	27776
300.11377	27720
300.13477	27837
300.15576	27739
300.17676	27552
300.19775	27452
300.21875	27251
300.23975	27052
300.26074	27077
300.28174	26914
300.30273	27022
300.32373	27134
300.34473	27222
300.36572	27295
300.38672	27134
300.40771	27050
300.42871	27065
300.44971	27197
300.4707	27424
300.4917	27652
300.5127	27921
300.53369	27868
300.55466	27723
300.57565	27679
300.59665	27816
300.61765	27893
300.63864	27873
300.65964	27986
300.68063	28000
300.70163	28000
300.72263	27769
300.74359	27517
300.76459	27441
300.78558	27479
300.80658	27522
300.82758	27900
300.84857	28183
300.86954	28244
300.89053	27951
300.91153	27900
300.93253	28003
300.95352	28131
300.97449	28173
300.99548	28400
301.01648	28584
301.03748	28637
301.05844	28441
301.07944	28326
301.10043	28225
301.12143	28249
301.1424	28165
301.16339	28252
301.18439	28271
301.20535	28206
301.22635	28037
301.24734	27907
301.26831	28016
301.28931	28066
301.3103	28127
301.33127	28317
301.35226	28297
301.37326	28238
301.39423	28086
301.41522	28107
301.43622	28267
301.45718	28482
301.47818	28569
301.49915	28675
301.52014	28744
301.54114	28675
301.5621	28575
301.5831	28383
301.60406	28157
301.62506	28237
301.64603	28263
301.66702	28351
301.68802	28496
301.70898	28705
301.72998	28835
301.75095	28931
301.77194	28845
301.79291	28806
301.8139	28866
301.83487	28897
301.85587	28944
301.87683	28940
301.8978	28906
301.91879	28896
301.93976	28895
301.96075	28968
301.98172	28940
302.00272	29096
302.02368	29413
302.04465	29461
302.06564	29383
302.08661	29244
302.1076	29313
302.12857	29407
302.14954	29680
302.17053	29863
302.1915	30053
302.21249	30042
302.23346	30092
302.25443	30134
302.27542	30207
302.29639	30080
302.31735	29993
302.33835	30110
302.35931	30121
302.38028	30020
302.40125	29970
302.42224	30010
302.44321	29872
302.46417	29766
302.48514	29608
302.50613	29418
302.5271	29532
302.54807	29521
302.56903	29544
302.59003	29589
302.61099	29631
302.63196	29556
302.65292	29919
302.67389	29888
302.69489	29910
302.71585	29857
302.73682	30062
302.75778	30250
302.77875	30202
302.79974	30091
302.82071	30140
302.84167	30261
302.86264	30192
302.88361	29926
302.90457	29847
302.92554	29889
302.9465	29996
302.96747	29922
302.98846	29907
303.00943	29874
303.0304	29916
303.05136	29670
303.07233	29784
303.09329	29811
303.11426	30074
303.13522	30140
303.15619	30152
303.17715	30224
303.19812	30178
303.21909	29984
303.24005	29999
303.26102	30079
303.28198	30016
303.30295	30084
303.32391	30133
303.34488	30061
303.36584	30051
303.38681	30139
303.40778	30133
303.42874	30422
303.44971	30423
303.47064	30498
303.49161	30559
303.51257	30532
303.53354	30305
303.5545	30476
303.57547	30552
303.59644	30893
303.6174	31099
303.63837	31201
303.6593	31026
303.68027	31123
303.70123	31173
303.7222	31286
303.74316	31118
303.76413	31294
303.78506	31379
303.80603	31275
303.827	31290
303.84796	31274
303.86893	31183
303.88986	30988
303.91083	30667
303.93179	30622
303.95276	30889
303.97369	31212
303.99466	31441
304.01563	31642
304.03656	31337
304.05753	31315
304.07849	31476
304.09946	31793
304.12039	31591
304.14136	31589
304.16232	31545
304.18326	31638
304.20422	31668
304.22519	31566
304.24612	31548
304.26709	31698
304.28806	31582
304.30899	31300
304.32996	31365
304.35089	31575
304.37186	31575
304.39282	31411
304.41376	31351
304.43472	31592
304.45566	31483
304.47662	31258
304.49756	30915
304.51852	30926
304.53949	30861
304.56042	30979
304.58139	31046
304.60233	31329
304.62329	31288
304.64423	31185
304.66519	30987
304.68613	30982
304.70709	31027
304.72803	31190
304.74899	31358
304.76993	31590
304.79086	31653
304.81183	31433
304.83276	31512
304.85373	31686
304.87466	31842
304.89563	31945
304.91656	31881
304.9375	31870
304.95847	31743
304.9794	31598
305.00037	31523
305.0213	31637
305.04224	31827
305.0632	31728
305.08414	31760
305.10507	31993
305.12604	32286
305.14697	32349
305.16791	32136
305.18887	31999
305.20981	32061
305.23074	32069
305.25171	32187
305.27264	32311
305.29358	32454
305.31451	32529
305.33548	32576
305.35641	32495
305.37735	32323
305.39828	32146
305.41925	32165
305.44019	32482
305.46112	32472
305.48206	32413
305.50299	32314
305.52396	32585
305.54489	32443
305.56583	32701
305.58676	32554
305.6077	32353
305.62866	32317
305.6496	32199
305.67053	32222
305.69147	32200
305.7124	32366
305.73334	32294
305.75427	32240
305.77521	32487
305.79617	32725
305.81711	32714
305.83804	32752
305.85898	32534
305.87991	32519
305.90085	32292
305.92178	32166
305.94272	32054
305.96365	31832
305.98459	31818
306.00552	31793
306.02646	31882
306.04739	31945
306.06833	31896
306.08926	31697
306.1102	31571
306.13113	31542
306.15207	31644
306.173	32063
306.19394	32296
306.21487	32679
306.23581	32448
306.25674	32359
306.27768	32512
306.29861	32583
306.31952	32578
306.34045	32655
306.36139	32744
306.38232	32813
306.40326	32548
306.42419	32207
306.44513	32098
306.46606	31952
306.48697	32002
306.5079	32334
306.52884	32793
306.54977	32954
306.57071	32814
306.59164	32704
306.61255	32624
306.63348	32862
306.65442	33131
306.67535	33214
306.69629	33507
306.71719	33742
306.73813	33670
306.75906	33426
306.78	33476
306.8009	33411
306.82184	33331
306.84277	33329
306.86368	33340
306.88461	33210
306.90555	33269
306.92648	33058
306.94739	33070
306.96832	33123
306.98926	33076
307.01016	33173
307.0311	33228
307.05203	33264
307.07294	32924
307.09387	32907
307.11478	32893
307.13571	33116
307.15665	33341
307.17755	33683
307.19849	33734
307.21939	33787
307.24033	33821
307.26126	33601
307.28217	33461
307.3031	33196
307.32401	33187
307.34494	33331
307.36584	33462
307.38678	33509
307.40768	33547
307.42862	33560
307.44952	33564
307.47046	33388
307.49136	33332
307.5123	33340
307.5332	33322
307.55414	33299
307.57504	33488
307.59598	33373
307.61688	33185
307.63779	33244
307.65872	33065
307.67963	33241
307.70056	33456
307.72147	33592
307.7424	33563
307.76331	33520
307.78421	33374
307.80515	33371
307.82605	33508
307.84695	33620
307.86789	33853
307.88879	34252
307.9097	34097
307.93063	33998
307.95154	34185
307.97244	34272
307.99338	34426
308.01428	34464
308.03519	34463
308.05612	34396
308.07703	34379
308.09793	34357
308.11884	34447
308.13977	34300
308.16068	34147
308.18158	33890
308.20248	33713
308.22339	33756
308.24432	33811
308.26523	34014
308.28613	34121
308.30704	33939
308.32794	33938
308.34888	34267
308.36978	34486
308.39069	34355
308.41159	34386
308.4325	34560
308.4534	34708
308.4743	34557
308.49524	34530
308.51614	34664
308.53705	34580
308.55795	34617
308.57886	34325
308.59976	34172
308.62067	34392
308.64157	34303
308.66248	34384
308.68338	34184
308.70428	34271
308.72519	34196
308.74609	34124
308.767	34012
308.7879	34236
308.80881	34292
308.82971	34377
308.85062	34546
308.87152	34257
308.89243	34243
308.91333	34221
308.93423	34072
308.95514	33980
308.97604	33697
308.99695	33666
309.01785	33694
309.03876	33310
309.05966	33079
309.08057	32852
309.10147	32805
309.12238	32835
309.14325	32965
309.16415	32944
309.18506	32964
309.20596	32768
309.22687	32430
309.24777	32251
309.26868	32267
309.28955	32542
309.31046	32847
309.33136	32925
309.35226	33084
309.37317	33168
309.39404	33298
309.41495	33234
309.43585	33012
309.45676	32967
309.47763	32873
309.49854	32586
309.51944	32654
309.54034	32624
309.56122	32739
309.58212	32633
309.60303	32541
309.62393	32542
309.64481	32850
309.66571	33063
309.68661	33061
309.70749	33206
309.72839	32859
309.7493	32842
309.77017	33118
309.79108	33366
309.81195	33290
309.83286	33218
309.85376	33237
309.87463	33535
309.89554	33484
309.91644	33248
309.93732	33037
309.95822	33314
309.9791	33359
310	33123
310.02087	33123
310.04178	33532
310.06265	33580
310.08356	33857
310.10443	34082
310.12534	34129
310.14624	33975
310.16711	33639
310.18799	33380
310.20889	33273
310.22977	33196
310.25067	33634
310.27155	33819
310.29245	33946
310.31332	33833
310.33423	33601
310.3551	33527
310.37601	33476
310.39688	33640
310.41776	33731
310.43866	34076
310.45953	34321
310.48044	34383
310.50131	34179
310.52219	34074
310.54309	34404
310.56396	34283
310.58484	34504
310.60574	34330
310.62662	34407
310.64749	34550
310.6684	34181
310.68927	34007
310.71014	34006
310.73105	33868
310.75192	33994
310.7728	34344
310.79367	34358
310.81458	34637
310.83545	34655
310.85632	34524
310.8772	34826
310.8981	34923
310.91898	34934
310.93985	35049
310.96072	35160
310.9816	35097
311.0025	35003
311.02338	35066
311.04425	35081
311.06512	35131
311.086	35082
311.10687	35044
311.12775	34855
311.14865	35062
311.16953	34862
311.1904	34795
311.21127	34631
311.23215	34850
311.25302	35108
311.2739	35079
311.29477	35078
311.31564	34769
311.33652	34543
311.35739	34598
311.3783	34868
311.39917	34976
311.42004	34974
311.44092	35185
311.46179	35149
311.48267	35229
311.50354	34950
311.52441	34835
311.54529	34560
311.56616	34470
311.58704	34220
311.60788	33788
311.62875	33773
311.64963	33628
311.6705	33437
311.69138	33547
311.71225	33746
311.73312	33663
311.754	33623
311.77487	33699
311.79575	33520
311.81662	33619
311.83746	33760
311.85834	33999
311.87921	34670
311.90009	34659
311.92096	34614
311.94183	34400
311.96271	34458
311.98355	34644
312.00443	34706
312.0253	34788
312.04617	34850
312.06705	34725
312.08789	34424
312.10876	34292
312.12964	34154
312.15051	33941
312.17136	34208
312.19223	34480
312.2131	34916
312.23395	34933
312.25482	34812
312.2757	34400
312.29657	34476
312.31741	34759
312.33829	34983
312.35916	35437
312.38	35459
312.40088	35694
312.42175	35483
312.4426	35403
312.46347	35346
312.48431	35228
312.50519	35150
312.52606	35326
312.54691	35254
312.56778	35166
312.58862	35412
312.6095	35238
312.63037	35324
312.65121	35225
312.67209	35270
312.69293	35003
312.71381	35142
312.73465	34918
312.75552	34811
312.77637	34844
312.79724	34879
312.81808	34812
312.83896	35314
312.8598	35222
312.88068	35565
312.90152	35461
312.92239	35487
312.94324	35717
312.96411	35493
312.98495	35600
313.0058	35572
313.02667	35631
313.04752	35756
313.06839	35799
313.08923	35947
313.11008	35677
313.13095	35783
313.15179	35895
313.17267	35404
313.19351	35495
313.21436	35374
313.23523	35349
313.25607	35547
313.27692	35621
313.29779	35325
313.31863	35219
313.33948	35105
313.36032	35459
313.3812	35592
313.40204	35645
313.42288	35441
313.44376	35278
313.4646	35256
313.48544	35018
313.50629	35449
313.52713	35432
313.548	35879
313.56885	36217
313.58969	35810
313.61053	35965
313.63138	35880
313.65225	35882
313.6731	36115
313.69394	36131
313.71478	36131
313.73563	36184
313.75647	35858
313.77734	35996
313.79819	36180
313.81903	35811
313.83987	35542
313.86072	35018
313.88156	35193
313.9024	35357
313.92325	35470
313.94409	35663
313.96494	35853
313.98578	35742
314.00662	35640
314.02747	36267
314.04831	36262
314.06915	36137
314.09	36071
314.11084	36496
314.13168	36331
314.15253	36400
314.17337	36201
314.19421	36449
314.21506	36367
314.2359	36152
314.25674	36005
314.27759	35990
314.29843	36034
314.31927	36182
314.34012	36096
314.36096	36286
314.38181	36332
314.40265	35987
314.42346	35642
314.44431	35701
314.46515	35696
314.48599	35810
314.50684	35813
314.52768	35785
314.54849	35710
314.56934	35625
314.59018	35693
314.61102	35687
314.63187	35645
314.65271	35440
314.67352	35808
314.69437	35705
314.71521	35729
314.73605	35754
314.75687	35668
314.77771	35869
314.79855	35915
314.81937	36170
314.84021	36299
314.86105	36641
314.8819	36073
314.90271	36038
314.92355	35924
314.9444	36067
314.96521	36390
314.98605	36243
315.0069	36598
315.02771	36435
315.04855	36900
315.0694	36906
315.09021	36731
315.11105	36665
315.13187	36621
315.15271	36671
315.17355	36529
315.19437	36435
315.21521	36768
315.23602	36716
315.25687	36596
315.27768	36340
315.29852	36327
315.31934	36427
315.34018	36695
315.36099	36776
315.38184	36917
315.40265	36585
315.42349	36199
315.44431	36508
315.46515	36651
315.48596	36619
315.50681	36572
315.52762	36658
315.54846	36337
315.56927	36580
315.59009	36422
315.61093	36283
315.63174	36428
315.65259	36222
315.6734	36281
315.69421	36532
315.71506	36705
315.73587	36705
315.75668	36565
315.77753	36748
315.79834	36612
315.81918	36587
315.84	36148
315.86081	36111
315.88162	35873
315.90247	35830
315.92328	35957
315.94409	36405
315.96494	36395
315.98575	36430
316.00656	36115
316.02737	36231
316.04822	36096
316.06903	36198
316.08984	36486
316.11066	36758
316.13147	37000
316.15231	37130
316.17313	36756
316.19394	36912
316.21475	37000
316.23557	37038
316.25641	36890
316.27722	36961
316.29803	36977
316.31885	36912
316.33966	36660
316.36047	36484
316.38129	36208
316.4021	36286
316.42291	36548
316.44376	36795
316.46457	37046
316.48538	37467
316.5062	37375
316.52701	37283
316.54782	37390
316.56863	37298
316.58945	37582
316.61026	37631
316.63107	37740
316.65189	37951
316.6727	37733
316.69351	37800
316.71432	37834
316.73514	37673
316.75595	37720
316.77676	37750
316.79758	37628
316.81839	37769
316.8392	37507
316.85999	37258
316.8808	37341
316.90161	37294
316.92242	37558
316.94324	37752
316.96405	37541
316.98486	37366
317.00568	36974
317.02646	37127
317.04727	37270
317.06808	37692
317.0889	37802
317.10971	37639
317.13052	38023
317.15131	38170
317.17212	38047
317.19293	37586
317.21375	37590
317.23453	37413
317.25534	37407
317.27615	37045
317.29697	37053
317.31775	36745
317.33856	36733
317.35938	37016
317.38019	37009
317.40097	36992
317.42178	37020
317.4426	36870
317.46338	36690
317.48419	36843
317.505	37240
317.52579	37402
317.5466	37824
317.56741	38192
317.5882	37868
317.60901	37932
317.62979	37536
317.6506	38155
317.67142	37852
317.6922	38079
317.71301	37983
317.7338	37865
317.75461	37665
317.77542	37448
317.7962	37210
317.81702	37501
317.8378	37603
317.85861	37827
317.87939	37994
317.90021	37999
317.92099	37593
317.9418	37507
317.96259	37682
317.9834	37949
318.00418	38358
318.02496	38564
318.04578	38655
318.06656	38881
318.08737	38557
318.10815	38614
318.12897	38593
318.14975	38647
318.17053	38451
318.19135	38593
318.21213	38396
318.23291	38337
318.25372	38385
318.27451	38710
318.29532	38368
318.3161	38424
318.33688	38379
318.3577	38052
318.37848	38170
318.39926	37970
318.42004	38075
318.44086	38146
318.46164	38118
318.48242	38593
318.5032	38740
318.52402	38770
318.5448	38920
318.56558	38773
318.58636	38745
318.60718	38604
318.62796	38719
318.64874	38755
318.66953	38780
318.69031	39048
318.71112	38947
318.7319	38991
318.75269	38936
318.77347	39003
318.79425	38924
318.81503	38776
318.83582	38639
318.85663	38518
318.87741	38437
318.89819	38392
318.91898	38284
318.93976	38502
318.96054	38119
318.98132	38040
319.00211	37904
319.02289	38464
319.04367	38509
319.06445	38514
319.08524	38394
319.10602	38636
319.1268	38511
319.14758	38231
319.16837	38461
319.18915	38505
319.20993	38774
319.23071	39181
319.2515	38982
319.27228	38985
319.29306	39341
319.31384	39295
319.33463	39339
319.35541	39158
319.37619	39338
319.39697	39101
319.41772	39121
319.43851	38988
319.45929	39054
319.48007	39160
319.50085	38686
319.52164	38549
319.54242	38629
319.56317	38599
319.58395	38649
319.60474	38995
319.62552	39123
319.6463	38867
319.66705	39267
319.68784	39140
319.70862	39645
319.7294	39320
319.75015	39487
319.77094	39518
319.79172	39525
319.8125	39735
319.83325	39712
319.85403	39544
319.87482	39483
319.89557	39392
319.91635	39236
319.93713	39382
319.95789	39318
319.97867	39233
319.99945	39407
320.0202	39447
320.04099	39313
320.06177	38760
320.08252	38628
320.1033	38198
320.12405	38466
320.14484	38208
320.16562	38239
320.18637	38251
320.20715	38359
320.22791	38386
320.24869	38278
320.26944	38495
320.29022	38549
320.31097	38527
320.33176	38764
320.35251	38807
320.37329	38815
320.39404	38671
320.41483	38689
320.43558	38535
320.45636	38968
320.47711	38896
320.49789	39161
320.51865	39295
320.53943	39135
320.56018	39005
320.58093	38940
320.60172	39041
320.62247	38994
320.64325	39350
320.664	39027
320.68475	39263
320.70554	39495
320.72629	39628
320.74704	39507
320.76782	39656
320.78857	39646
320.80933	39547
320.83011	39767
320.85086	39995
320.87161	40065
320.89236	40182
320.91315	39952
320.9339	40138
320.95465	39653
320.97543	40140
320.99619	39898
321.01694	40115
321.03769	40019
321.05844	39891
321.07922	39641
321.09998	39865
321.12073	39858
321.14148	39929
321.16223	39759
321.18301	39669
321.20377	39767
321.22452	39492
321.24527	39419
321.26602	39634
321.28677	39642
321.30753	39410
321.32828	39628
321.34903	39575
321.36981	39707
321.39056	39871
321.41132	39429
321.43207	39362
321.45282	39022
321.47357	39091
321.49432	38729
321.51508	38885
321.53583	38838
321.55658	39055
321.57733	39053
321.59808	39079
321.61884	39266
321.63959	38865
321.66034	39192
321.68109	38933
321.70184	39058
321.7226	39283
321.74335	39728
321.76407	39787
321.78482	40068
321.80557	39971
321.82632	39709
321.84708	40304
321.86783	40022
321.88858	39887
321.90933	40045
321.93005	39964
321.95081	39746
321.97156	39794
321.99231	39460
322.01306	39534
322.03381	39600
322.05453	39470
322.07529	39576
322.09604	40095
322.11679	40043
322.13751	40205
322.15826	40171
322.17902	40161
322.19977	40307
322.22049	40658
322.24124	40465
322.26199	40810
322.28275	40961
322.30347	40721
322.32422	40939
322.34497	40892
322.36569	40903
322.38644	40639
322.4072	40583
322.42792	40521
322.44867	40583
322.46942	40888
322.49014	40641
322.51089	40850
322.53162	40948
322.55237	40921
322.57309	40969
322.59384	40703
322.61459	40889
322.63531	40334
322.65607	40196
322.67679	40030
322.69754	40456
322.71826	40456
322.73901	40698
322.75974	41059
322.78049	40937
322.80121	41250
322.82196	40973
322.84268	40845
322.86343	40684
322.88416	40907
322.90491	40753
322.92563	40946
322.94635	40593
322.9671	40375
322.98782	40260
323.00858	40224
323.0293	40308
323.05002	40272
323.07077	40097
323.09149	40418
323.11221	39995
323.13297	40368
323.15369	40408
323.17441	40926
323.19516	41043
323.21588	41316
323.2366	41045
323.25735	41155
323.27808	41106
323.2988	40905
323.31955	41256
323.34027	41063
323.36099	41085
323.38171	40851
323.40247	40884
323.42319	41033
323.44391	40610
323.46463	40993
323.48535	40978
323.5061	41151
323.52682	41497
323.54755	40974
323.56827	41013
323.58899	40860
323.60971	41205
323.63043	41063
323.65118	41544
323.67191	41570
323.69263	41977
323.71335	41670
323.73407	41642
323.75479	41818
323.77551	41996
323.79623	42163
323.81696	42360
323.83768	42005
323.8584	42058
323.87912	41813
323.89984	41889
323.92056	41735
323.94128	41864
323.96201	41472
323.98273	41526
324.00345	41258
324.02417	41556
324.04489	41499
324.06561	41679
324.08633	41626
324.10706	41867
324.12778	41888
324.1485	41766
324.16922	42100
324.18994	42121
324.21066	42099
324.23135	42317
324.25208	42577
324.2728	42341
324.29352	42440
324.31424	42426
324.33496	42123
324.35568	42425
324.37637	42431
324.39709	42606
324.41782	42255
324.43854	42507
324.45926	42305
324.47995	42405
324.50067	42123
324.52139	42161
324.54211	42136
324.56281	42196
324.58353	42051
324.60425	41711
324.62494	41947
324.64566	41732
324.66638	41721
324.6871	42026
324.70779	42218
324.72852	42116
324.74924	42232
324.76993	42259
324.79065	42035
324.81134	42012
324.83206	41834
324.85278	42444
324.87347	42356
324.8942	42395
324.91492	42370
324.93561	42398
324.95633	42401
324.97702	42322
324.99774	42402
325.01843	42185
325.03915	42357
325.05984	42358
325.08057	42182
325.10126	42272
325.12198	42516
325.14267	41999
325.16339	41988
325.18408	42107
325.2048	42041
325.22549	42187
325.24622	42327
325.26691	42561
325.28763	42243
325.30832	42368
325.32901	42366
325.34973	42556
325.37042	42164
325.39114	42448
325.41183	42083
325.43253	42487
325.45325	42485
325.47394	42331
325.49463	42307
325.51535	42207
325.53604	42021
325.55673	41928
325.57745	41574
325.59814	41825
325.61884	41670
325.63953	41523
325.66025	41541
325.68094	41348
325.70163	41346
325.72232	40975
325.74304	40838
325.76373	40573
325.78442	40517
325.80511	40689
325.82581	40703
325.84653	40642
325.86722	40743
325.88791	40743
325.9086	41043
325.92929	40647
325.94998	40784
325.9707	41140
325.99139	41018
326.01208	41363
326.03278	41126
326.05347	40706
326.07416	40938
326.09485	41072
326.11554	41336
326.13623	41449
326.15692	41229
326.17761	41405
326.1983	41303
326.21899	40788
326.23969	41044
326.26038	40781
326.28107	40749
326.30176	41062
326.32245	41064
326.34314	41417
326.36383	41684
326.38452	41609
326.40521	41609
326.4259	41651
326.44659	41538
326.46729	41719
326.48798	41839
326.50867	41964
326.52936	42054
326.55005	41957
326.57071	42083
326.5914	41750
326.61209	41733
326.63278	41407
326.65347	41709
326.67416	41775
326.69485	41368
326.71552	41476
326.73621	41388
326.7569	41465
326.77759	41480
326.79825	41668
326.81894	41462
326.83963	41411
326.86032	41324
326.88098	41311
326.90167	41510
326.92236	41473
326.94305	41574
326.96371	41753
326.98441	41597
327.0051	41873
327.02576	41688
327.04645	41865
327.06714	41345
327.0878	41212
327.10849	41129
327.12918	41213
327.14984	41136
327.17053	41053
327.19119	41005
327.21188	40932
327.23257	40870
327.25323	40793
327.27393	41164
327.29459	40970
327.31528	40842
327.33594	41016
327.35663	41305
327.37729	41376
327.39798	41908
327.41864	41609
327.43933	41922
327.45999	41804
327.48068	41722
327.50134	41513
327.52203	41644
327.54269	41596
327.56339	42068
327.58405	41746
327.60474	41816
327.6254	41685
327.64606	41112
327.66675	41444
327.68741	41436
327.70807	41411
327.72876	41717
327.74942	42094
327.77011	42058
327.79077	41865
327.81143	41531
327.83212	41757
327.85278	42071
327.87344	42118
327.8941	42087
327.91479	42245
327.93546	42211
327.95612	41960
327.97681	42050
327.99747	42052
328.01813	42169
328.03879	42152
328.05945	42041
328.08014	42353
328.1008	42243
328.12146	42374
328.14212	42139
328.16278	42216
328.18347	42312
328.20413	41983
328.22479	42010
328.24545	42194
328.26611	42101
328.28677	42270
328.30743	41919
328.32809	41891
328.34879	42378
328.36945	42303
328.39011	42392
328.41077	42382
328.43143	42553
328.45209	42345
328.47275	41965
328.49341	42037
328.51407	42126
328.53473	41941
328.55539	41962
328.57605	42042
328.59671	42114
328.61737	41803
328.63803	41699
328.65869	41795
328.67935	42001
328.70001	41721
328.72067	42387
328.74133	41931
328.76196	42481
328.78262	42313
328.80328	42761
328.82394	42833
328.8446	42903
328.86526	42985
328.88593	43057
328.90659	42687
328.92722	42953
328.94788	42794
328.96854	42842
328.9892	42864
329.00986	42723
329.03049	42775
329.05115	42917
329.07181	42929
329.09247	43043
329.11313	43040
329.13376	43303
329.15442	43308
329.17508	43264
329.19571	43082
329.21637	43154
329.23703	43027
329.25769	43199
329.27832	43210
329.29898	43128
329.31964	43388
329.34027	43706
329.36093	43792
329.38156	43697
329.40222	43796
329.42288	44114
329.44351	44214
329.46417	43940
329.4848	44035
329.50546	43600
329.52612	43545
329.54675	43656
329.56741	43436
329.58804	43136
329.6087	43441
329.62933	43260
329.64999	43516
329.67062	43681
329.69128	43539
329.71191	43890
329.73257	44132
329.7532	44002
329.77386	44187
329.79449	43861
329.81516	44490
329.83578	44608
329.85641	44335
329.87708	44672
329.89771	44498
329.91837	44392
329.939	44306
329.95963	44488
329.98029	44406
330.00092	44318
330.02158	44175
330.04221	44337
330.06284	44522
330.0835	44375
330.10413	44020
330.12476	44055
330.14539	43928
330.16605	43969
330.18668	43954
330.20731	43697
330.22794	43517
330.2486	43713
330.26923	43794
330.28986	43479
330.31049	43672
330.33115	43614
330.35178	43320
330.37241	43560
330.39304	43268
330.41367	43461
330.43433	43279
330.45496	43606
330.47559	43379
330.49622	43473
330.51685	43395
330.53748	43240
330.55811	43309
330.57874	43154
330.59937	43459
330.62003	43145
330.64066	43444
330.66129	43383
330.68192	43283
330.70255	43159
330.72318	43249
330.7438	42947
330.76443	43087
330.78506	42984
330.80569	43251
330.82632	43324
330.84695	43274
330.86758	43276
330.88821	43308
330.90884	42996
330.92947	43241
330.9501	42957
330.9707	43096
330.99133	43257
331.01196	42796
331.03259	43238
331.05322	42853
331.07385	43273
331.09448	43344
331.11511	43226
331.13571	43277
331.15634	43361
331.17697	43158
331.1976	43094
331.21823	42568
331.23886	41354
331.25946	38929
