Date and Time:                Fri Oct 7 12:10:37.000 2022
Software Version:             4.31.30023.0
Temperature (C):              -40
Model:                        DU940P_BU2
Data Type:                    Counts
Acquisition Mode:             Single Scan
Trigger Mode:                 Internal
Exposure Time (secs):         40
Readout Mode:                 Full Vertical Binning
Horizontal binning:           1
Extended Dynamic Range:       off
Horizontally flipped:         false
Vertical Shift Speed (usecs): 14.51
Pixel Readout Rate (MHz):     3
Baseline Clamp:               ON
Clock Amplitude:              Normal
Output Amplifier:             High Capacity
Serial Number:                23634
Pre-Amplifier Gain:           1.000000
Spurious Noise Filter Mode:   No Filter
Photon counted:               false
Data Averaging Filter Mode:   No Filter
SR500i:
Serial Number:                
Wavelength (nm):              260
Grating Groove Density (l/mm):1199.47
Grating Blaze:                500
Output Flipper Port:          Direct
Accessory Output Port 1:      Off
Accessory Output Port 2:      Off
Accessory Output Port 3:      Off
Accessory Input Port:         On



238.25345	44229
238.27481	42998
238.29616	43551
238.31752	43459
238.33887	42973
238.36021	43403
238.38158	43142
238.40292	43055
238.42427	42705
238.44563	42495
238.46698	42205
238.48833	41748
238.50969	41232
238.53104	41382
238.55238	41138
238.57375	41079
238.59509	40931
238.61644	40903
238.63779	40874
238.65915	40690
238.6805	40535
238.70184	40374
238.72319	40136
238.74454	40252
238.7659	40010
238.78725	40043
238.80859	40210
238.82994	39830
238.85129	39770
238.87263	39576
238.89398	39425
238.91534	39295
238.93669	39341
238.95804	39174
238.97939	38658
239.00073	38668
239.02208	38456
239.04343	38434
239.06477	38352
239.08612	38475
239.10747	37843
239.12881	37557
239.15016	37097
239.17151	36912
239.19286	36897
239.2142	37011
239.23555	36853
239.2569	36687
239.27823	36659
239.29958	36503
239.32092	36407
239.34227	36188
239.36362	35878
239.38496	35984
239.40631	35922
239.42764	35706
239.44899	35636
239.47034	35609
239.49168	35663
239.51303	35640
239.53436	35116
239.55571	34897
239.57706	34786
239.5984	34692
239.61974	34385
239.64108	34098
239.66243	33903
239.68376	33805
239.70511	33367
239.72646	33084
239.74779	32829
239.76913	32805
239.79048	32693
239.81181	32518
239.83316	32496
239.85451	32276
239.87584	32008
239.89719	31771
239.91852	31705
239.93987	31582
239.9612	31469
239.98254	31340
240.00388	31375
240.02522	31230
240.04655	31127
240.0679	31114
240.08923	31095
240.11058	30746
240.13191	30662
240.15326	30518
240.17459	30383
240.19592	30177
240.21727	29781
240.2386	29748
240.25995	29652
240.28128	29716
240.30261	29489
240.32396	29346
240.34529	29384
240.36662	29375
240.38797	29247
240.4093	29012
240.43063	28863
240.45197	28792
240.47331	28543
240.49464	28462
240.51598	28504
240.53731	28530
240.55865	28357
240.57999	28097
240.60132	27963
240.62265	27770
240.64398	27595
240.66533	27540
240.68666	27616
240.70799	27479
240.72932	27089
240.75066	26912
240.77199	26859
240.79332	26830
240.81465	26796
240.83598	26779
240.85732	26676
240.87865	26467
240.89998	26168
240.92133	25938
240.94266	25674
240.96397	25657
240.98531	25510
241.00664	25479
241.02797	25489
241.0493	25319
241.07063	25153
241.09196	25031
241.1133	24792
241.13463	24702
241.15596	24441
241.17729	24189
241.19862	24065
241.21994	23884
241.24127	23757
241.2626	23724
241.28394	23666
241.30527	23549
241.3266	23418
241.34792	23312
241.36925	23271
241.39058	23219
241.41191	23034
241.43323	23101
241.45456	23115
241.47589	23025
241.49721	23024
241.51854	22873
241.53987	22877
241.5612	22807
241.58252	22594
241.60385	22408
241.62517	22343
241.6465	22327
241.66783	22121
241.68915	22089
241.71048	21921
241.7318	21779
241.75313	21705
241.77446	21643
241.79578	21657
241.81711	21798
241.83842	21720
241.85976	21482
241.88107	21283
241.9024	21285
241.92372	21325
241.94504	21289
241.96637	21367
241.98769	21314
242.00902	21209
242.03033	21107
242.05167	21026
242.07298	20817
242.0943	20673
242.11563	20588
242.13695	20549
242.15826	20468
242.1796	20348
242.20091	20212
242.22223	20127
242.24356	20048
242.26488	19976
242.28619	19767
242.30751	19581
242.32884	19461
242.35016	19299
242.37148	19297
242.39279	19202
242.41411	19099
242.43544	19164
242.45676	19146
242.47807	19073
242.49939	19019
242.52071	19021
242.54202	18816
242.56334	18719
242.58467	18599
242.60599	18569
242.6273	18417
242.64862	18399
242.66994	18216
242.69125	18047
242.71257	17955
242.73389	17982
242.7552	17810
242.77652	17778
242.79784	17737
242.81915	17577
242.84047	17429
242.86179	17323
242.8831	17366
242.90442	17507
242.92572	17499
242.94704	17401
242.96835	17264
242.98967	17261
243.01099	17072
243.0323	16782
243.05362	16682
243.07492	16635
243.09624	16555
243.11755	16521
243.13887	16391
243.16019	16286
243.18149	16065
243.2028	15983
243.22412	16095
243.24544	16070
243.26674	16058
243.28806	15955
243.30937	15810
243.33067	15670
243.35199	15535
243.37331	15564
243.39461	15596
243.41592	15634
243.43724	15544
243.45854	15449
243.47986	15298
243.50116	15274
243.52248	15193
243.54378	15127
243.56509	15060
243.58641	15002
243.60771	14832
243.62903	14677
243.65033	14532
243.67165	14510
243.69295	14453
243.71426	14299
243.73557	14048
243.75687	14018
243.77818	13888
243.79948	13869
243.8208	13885
243.8421	13772
243.8634	13690
243.88472	13758
243.90602	13794
243.92732	13726
243.94864	13613
243.96994	13570
243.99124	13420
244.01256	13355
244.03386	13308
244.05516	13157
244.07646	13025
244.09778	13015
244.11908	12887
244.14038	12732
244.16168	12633
244.183	12631
244.2043	12531
244.2256	12402
244.2469	12264
244.2682	12233
244.28951	12117
244.31082	12006
244.33212	12031
244.35342	11992
244.37473	11958
244.39603	11929
244.41733	11815
244.43863	11788
244.45993	11702
244.48123	11630
244.50253	11570
244.52383	11480
244.54514	11419
244.56644	11347
244.58774	11315
244.60904	11228
244.63034	11187
244.65164	11136
244.67294	11125
244.69424	11107
244.71555	11128
244.73683	10987
244.75813	10849
244.77943	10825
244.80074	10759
244.82204	10632
244.84334	10634
244.86462	10592
244.88593	10628
244.90723	10545
244.92853	10407
244.94983	10333
244.97112	10339
244.99242	10324
245.01372	10252
245.035	10228
245.0563	10117
245.07761	10076
245.09889	10037
245.12019	10045
245.14149	9958
245.16278	9960
245.18408	9880
245.20538	9862
245.22667	9801
245.24797	9723
245.26926	9703
245.29056	9691
245.31186	9633
245.33315	9641
245.35445	9557
245.37573	9580
245.39703	9558
245.41832	9500
245.43962	9463
245.46091	9484
245.48219	9413
245.50349	9338
245.52478	9231
245.54608	9208
245.56737	9212
245.58867	9180
245.60995	9158
245.63124	9152
245.65254	9128
245.67383	8954
245.69511	8976
245.71642	8893
245.7377	8859
245.75899	8881
245.78027	8858
245.80157	8854
245.82286	8884
245.84415	8831
245.86543	8784
245.88673	8788
245.90802	8718
245.92931	8719
245.95059	8713
245.97188	8722
245.99318	8623
246.01447	8535
246.03575	8470
246.05704	8425
246.07832	8412
246.09961	8400
246.1209	8418
246.14218	8435
246.16347	8467
246.18475	8373
246.20604	8270
246.22733	8186
246.24861	8171
246.2699	8164
246.29118	8171
246.31247	8175
246.33376	8125
246.35504	8130
246.37633	8067
246.39761	8004
246.4189	7916
246.44019	7888
246.46147	7890
246.48276	7911
246.50403	7869
246.52531	7805
246.5466	7783
246.56789	7737
246.58917	7706
246.61046	7667
246.63173	7661
246.65302	7676
246.6743	7537
246.69559	7561
246.71686	7527
246.73814	7508
246.75943	7492
246.7807	7470
246.80199	7440
246.82327	7462
246.84454	7503
246.86583	7450
246.88712	7418
246.90839	7351
246.92967	7262
246.95096	7215
246.97223	7160
246.99352	7165
247.01479	7108
247.03607	7104
247.05734	7072
247.07863	7084
247.0999	7043
247.12119	7031
247.14246	7031
247.16374	7022
247.18501	6972
247.2063	6946
247.22757	7050
247.24886	7038
247.27013	7095
247.2914	7057
247.31268	6995
247.33395	6946
247.35522	6934
247.37651	6869
247.39778	6904
247.41905	6867
247.44034	6854
247.46161	6784
247.48288	6755
247.50417	6721
247.52544	6674
247.54671	6660
247.56798	6667
247.58926	6690
247.61053	6679
247.63181	6637
247.65308	6613
247.67435	6550
247.69562	6553
247.7169	6543
247.73817	6547
247.75945	6534
247.78072	6536
247.80199	6459
247.82326	6450
247.84453	6409
247.8658	6403
247.88707	6357
247.90834	6268
247.92961	6297
247.95088	6213
247.97215	6190
247.99342	6157
248.01469	6108
248.03596	6102
248.05724	6080
248.07851	6001
248.09978	5956
248.12105	5880
248.14232	5868
248.16359	5879
248.18484	5810
248.20612	5824
248.22739	5813
248.24866	5848
248.26993	5813
248.2912	5804
248.31245	5770
248.33372	5758
248.355	5711
248.37627	5629
248.39752	5638
248.41879	5589
248.44006	5558
248.46132	5563
248.48259	5464
248.50386	5499
248.52512	5486
248.54639	5434
248.56766	5402
248.58891	5368
248.61018	5337
248.63145	5425
248.65271	5286
248.67398	5284
248.69524	5292
248.71651	5270
248.73776	5282
248.75903	5272
248.78029	5273
248.80156	5210
248.82281	5135
248.84409	5153
248.86534	5135
248.88661	5132
248.90787	5065
248.92912	5099
248.95039	5031
248.97165	4992
248.99292	4993
249.01418	4994
249.03543	5046
249.0567	5040
249.07796	4966
249.09921	4983
249.12048	4961
249.14174	4888
249.16299	4923
249.18425	4959
249.20552	4973
249.22678	4967
249.24803	4936
249.26929	4905
249.29056	4851
249.31181	4883
249.33307	4837
249.35432	4846
249.37558	4827
249.39684	4792
249.41809	4751
249.43936	4771
249.46062	4756
249.48187	4732
249.50313	4691
249.52438	4639
249.54564	4604
249.56689	4562
249.58815	4605
249.60941	4609
249.63066	4593
249.65192	4554
249.67317	4610
249.69443	4586
249.71568	4600
249.73694	4526
249.75819	4510
249.77945	4508
249.80069	4497
249.82195	4476
249.8432	4474
249.86446	4486
249.88571	4462
249.90697	4406
249.92821	4337
249.94946	4355
249.97072	4372
249.99197	4346
250.01323	4300
250.03447	4316
250.05573	4313
250.07698	4286
250.09822	4270
250.11948	4245
250.14073	4254
250.16197	4197
250.18323	4183
250.20448	4211
250.22572	4189
250.24698	4167
250.26823	4136
250.28947	4131
250.31073	4102
250.33197	4107
250.35323	4111
250.37447	4122
250.39572	4122
250.41696	4094
250.43822	4061
250.45946	4075
250.48071	4079
250.50195	4075
250.52321	4079
250.54445	4073
250.5657	4061
250.58694	4023
250.60818	4032
250.62944	3964
250.65068	3988
250.67194	3959
250.69318	3996
250.71442	3982
250.73567	3999
250.75691	3986
250.77815	3948
250.79939	3974
250.82065	3973
250.84189	3931
250.86313	3934
250.88437	3962
250.90562	3945
250.92686	3957
250.9481	3897
250.96935	3882
250.99059	3875
251.01183	3856
251.03308	3853
251.05432	3875
251.07556	3880
251.0968	3857
251.11804	3852
251.13928	3821
251.16052	3819
251.18176	3825
251.203	3798
251.22424	3817
251.24548	3804
251.26672	3782
251.28796	3774
251.3092	3773
251.33044	3791
251.35168	3772
251.37292	3755
251.39417	3754
251.41541	3766
251.43665	3753
251.45787	3704
251.47911	3680
251.50035	3651
251.52159	3640
251.54283	3624
251.56407	3624
251.5853	3640
251.60654	3644
251.62778	3629
251.64902	3648
251.67024	3656
251.69148	3608
251.71272	3631
251.73395	3626
251.75519	3658
251.77643	3624
251.79767	3617
251.81889	3570
251.84013	3606
251.86136	3571
251.8826	3546
251.90384	3610
251.92506	3590
251.9463	3632
251.96753	3589
251.98877	3563
252.00999	3579
252.03123	3590
252.05246	3594
252.0737	3587
252.09492	3610
252.11617	3600
252.13739	3594
252.15863	3594
252.17986	3593
252.20108	3558
252.22232	3523
252.24355	3573
252.26479	3558
252.28601	3561
252.30724	3555
252.32848	3534
252.3497	3528
252.37093	3511
252.39217	3491
252.41339	3513
252.43462	3484
252.45584	3469
252.47708	3426
252.49831	3423
252.51953	3425
252.54076	3476
252.56198	3467
252.58321	3458
252.60445	3455
252.62567	3449
252.6469	3434
252.66812	3430
252.68935	3434
252.71057	3418
252.7318	3399
252.75302	3431
252.77425	3415
252.79547	3342
252.8167	3378
252.83792	3342
252.85915	3364
252.88037	3323
252.9016	3307
252.92282	3290
252.94405	3297
252.96527	3318
252.9865	3307
253.00772	3344
253.02895	3368
253.05017	3336
253.0714	3319
253.09261	3319
253.11383	3330
253.13506	3320
253.15628	3305
253.17751	3255
253.19872	3270
253.21994	3247
253.24117	3229
253.26239	3230
253.2836	3244
253.30482	3268
253.32605	3267
253.34726	3249
253.36848	3259
253.38971	3266
253.41092	3199
253.43214	3218
253.45337	3240
253.47458	3213
253.4958	3227
253.51701	3241
253.53824	3266
253.55946	3256
253.58067	3234
253.6019	3256
253.62311	3245
253.64433	3246
253.66554	3215
253.68677	3212
253.70798	3210
253.72919	3188
253.75041	3196
253.77162	3189
253.79285	3199
253.81406	3174
253.83527	3144
253.85649	3125
253.8777	3137
253.89893	3133
253.92014	3117
253.94135	3128
253.96255	3117
253.98378	3130
254.00499	3133
254.0262	3147
254.04741	3152
254.06863	3137
254.08984	3174
254.11105	3120
254.13226	3142
254.15347	3112
254.1747	3121
254.19591	3117
254.21712	3114
254.23833	3077
254.25954	3084
254.28075	3073
254.30196	3065
254.32317	3060
254.34438	3071
254.36559	3077
254.3868	3067
254.408	3055
254.42921	3049
254.45042	3045
254.47163	3127
254.49284	3044
254.51405	3067
254.53526	3081
254.55647	3080
254.57768	3048
254.59889	3031
254.6201	3027
254.64131	3001
254.66251	3036
254.68372	3027
254.70493	3008
254.72614	3030
254.74734	2972
254.76854	3019
254.78975	3032
254.81096	3032
254.83217	2993
254.85336	3005
254.87457	3017
254.89578	2980
254.91698	2961
254.93819	2979
254.9594	3015
254.98059	3035
255.0018	3017
255.02301	3012
255.0442	2997
255.06541	3028
255.08661	3018
255.10782	3021
255.12901	3005
255.15022	2982
255.17143	2990
255.19263	2986
255.21384	2984
255.23503	2998
255.25623	2978
255.27744	2949
255.29863	2907
255.31984	2917
255.34103	2949
255.36224	2983
255.38344	2972
255.40463	2958
255.42584	2916
255.44704	2976
255.46823	2978
255.48944	2973
255.51064	2967
255.53183	2959
255.55302	2940
255.57423	2943
255.59543	2927
255.61662	2916
255.63782	2952
255.65903	2925
255.68022	2903
255.70142	2887
255.72261	2923
255.7438	2930
255.765	2890
255.78619	2911
255.8074	2947
255.8286	2878
255.84979	2906
255.87099	2854
255.89218	2853
255.91338	2822
255.93457	2838
255.95576	2852
255.97696	2901
255.99815	2891
256.01935	2846
256.04053	2844
256.06174	2853
256.08292	2865
256.10413	2856
256.12531	2861
256.14651	2884
256.16769	2865
256.1889	2863
256.21008	2845
256.23126	2858
256.25247	2884
256.27365	2909
256.29486	2886
256.31604	2868
256.33722	2880
256.35843	2848
256.37961	2831
256.40079	2820
256.422	2826
256.44318	2811
256.46436	2813
256.48557	2826
256.50674	2821
256.52792	2828
256.54913	2835
256.57031	2825
256.59149	2816
256.6127	2810
256.63388	2837
256.65506	2823
256.67624	2844
256.69745	2814
256.71863	2823
256.73981	2826
256.76099	2803
256.7822	2807
256.80338	2823
256.82455	2801
256.84573	2810
256.86691	2783
256.88812	2766
256.9093	2793
256.93048	2793
256.95166	2818
256.97284	2826
256.99405	2817
257.01523	2818
257.03641	2775
257.05759	2779
257.07877	2814
257.09995	2810
257.12112	2777
257.1423	2798
257.16351	2805
257.18469	2795
257.20587	2798
257.22705	2796
257.24823	2744
257.26941	2741
257.29059	2730
257.31177	2731
257.33295	2724
257.35413	2752
257.37531	2727
257.39648	2706
257.41766	2707
257.43884	2765
257.46002	2732
257.4812	2698
257.50238	2739
257.52356	2724
257.54474	2735
257.56592	2724
257.5871	2730
257.60828	2722
257.62946	2692
257.65063	2672
257.67181	2718
257.69299	2735
257.71417	2742
257.73535	2722
257.75653	2704
257.77771	2721
257.79889	2723
257.82004	2699
257.84122	2715
257.8624	2718
257.88358	2705
257.90475	2750
257.92593	2734
257.94711	2752
257.96826	2714
257.98944	2736
258.01062	2697
258.0318	2720
258.05298	2732
258.07416	2716
258.09531	2732
258.11649	2714
258.13766	2715
258.15884	2673
258.17999	2659
258.20117	2667
258.22235	2655
258.24353	2651
258.26468	2662
258.28586	2664
258.30704	2643
258.32822	2652
258.34937	2660
258.37054	2692
258.39172	2680
258.41287	2666
258.43405	2664
258.45523	2637
258.47638	2608
258.49756	2628
258.51874	2644
258.53989	2615
258.56107	2613
258.58224	2628
258.60339	2623
258.62457	2603
258.64575	2597
258.6669	2593
258.68808	2605
258.70923	2592
258.73041	2608
258.75156	2615
258.77274	2630
258.79391	2627
258.81506	2614
258.83624	2644
258.85739	2608
258.87857	2594
258.89972	2588
258.9209	2570
258.94205	2572
258.96323	2585
258.98438	2569
259.00555	2568
259.0267	2575
259.04788	2547
259.06903	2577
259.09021	2545
259.11136	2551
259.13254	2539
259.15369	2634
259.17484	2544
259.19601	2521
259.21716	2551
259.23834	2534
259.25949	2540
259.28067	2546
259.30182	2560
259.32297	2576
259.34415	2591
259.3653	2583
259.38644	2632
259.40762	2583
259.42877	2598
259.44992	2566
259.4711	2554
259.49225	2561
259.5134	2553
259.53458	2570
259.55573	2559
259.57687	2549
259.59805	2516
259.6192	2543
259.64035	2532
259.6615	2548
259.68268	2533
259.70383	2571
259.72498	2540
259.74612	2569
259.7673	2538
259.78845	2548
259.8096	2534
259.83075	2544
259.85193	2560
259.87308	2592
259.89423	2579
259.91537	2546
259.93652	2523
259.95767	2504
259.97885	2511
260	2517
260.02115	2531
260.0423	2553
260.06345	2581
260.08459	2562
260.10574	2543
260.12692	2558
260.14807	2535
260.16922	2541
260.19037	2544
260.21152	2546
260.23267	2551
260.25381	2548
260.27496	2526
260.29611	2523
260.31726	2504
260.33841	2519
260.35956	2534
260.38071	2539
260.40186	2517
260.423	2512
260.44415	2495
260.4653	2494
260.48645	2485
260.5076	2508
260.52875	2517
260.5499	2521
260.57104	2500
260.59219	2497
260.61334	2483
260.63449	2476
260.65564	2469
260.67679	2488
260.69794	2494
260.71909	2473
260.74023	2498
260.76138	2447
260.7825	2442
260.80365	2447
260.8248	2447
260.84595	2485
260.8671	2477
260.88824	2485
260.90939	2434
260.93051	2434
260.95166	2428
260.97281	2423
260.99396	2438
261.01511	2428
261.03622	2435
261.05737	2434
261.07852	2442
261.09967	2412
261.12082	2395
261.14194	2389
261.16309	2388
261.18423	2435
261.20538	2429
261.2265	2412
261.24765	2384
261.2688	2369
261.28992	2358
261.31107	2371
261.33221	2379
261.35336	2382
261.37448	2372
261.39563	2377
261.41678	2361
261.4379	2317
261.45905	2314
261.48019	2354
261.50131	2333
261.52246	2334
261.54358	2312
261.56473	2317
261.58588	2296
261.60699	2252
261.62814	2216
261.64926	2209
261.67041	2231
261.69156	2256
261.71268	2234
261.73383	2240
261.75494	2235
261.77609	2192
261.79721	2186
261.81836	2210
261.83948	2224
261.86063	2199
261.88174	2241
261.90289	2224
261.92401	2207
261.94516	2193
261.96628	2192
261.98743	2204
262.00854	2192
262.02969	2221
262.05081	2231
262.07196	2202
262.09308	2206
262.11423	2152
262.13535	2131
262.15646	2166
262.17761	2161
262.19873	2162
262.21988	2191
262.241	2183
262.26212	2152
262.28326	2152
262.30438	2158
262.3255	2158
262.34665	2152
262.36777	2189
262.38889	2189
262.41003	2191
262.43115	2163
262.45227	2139
262.47342	2138
262.49454	2145
262.51566	2145
262.53677	2147
262.55792	2148
262.57904	2141
262.60016	2120
262.62131	2112
262.64243	2113
262.66354	2100
262.68466	2120
262.70578	2134
262.72693	2138
262.74805	2131
262.76917	2085
262.79028	2090
262.8114	2074
262.83255	2084
262.85367	2115
262.87479	2114
262.8959	2107
262.91702	2128
262.93814	2088
262.95926	2084
262.98041	2084
263.00153	2054
263.02264	2082
263.04376	2088
263.06488	2073
263.086	2070
263.10712	2058
263.12823	2041
263.14935	2054
263.17047	2065
263.19159	2079
263.21271	2075
263.23383	2065
263.25497	2058
263.27609	2069
263.29721	2066
263.31833	2026
263.33945	2037
263.36057	2038
263.38168	2038
263.40277	2048
263.42389	2061
263.44501	2050
263.46613	2018
263.48724	2020
263.50836	2021
263.52948	2029
263.5506	2049
263.57172	2047
263.59283	2031
263.61395	2052
263.63507	2023
263.65619	2017
263.67728	2022
263.69839	2033
263.71951	2033
263.74063	2043
263.76175	2045
263.78287	2031
263.80399	1999
263.82507	1997
263.84619	2005
263.86731	2019
263.88843	1993
263.90955	1999
263.93063	1996
263.95175	1982
263.97287	1972
263.99399	1941
264.01508	1954
264.03619	1983
264.05731	1992
264.07843	2037
264.09952	2014
264.12064	1974
264.14175	1973
264.16287	1981
264.18396	1970
264.20508	1980
264.2262	1974
264.24728	1985
264.2684	1993
264.28952	1970
264.31061	1957
264.33173	1953
264.35284	1957
264.37393	1955
264.39505	1949
264.41614	1959
264.43726	1959
264.45837	1953
264.47946	1945
264.50058	1946
264.52167	1957
264.54279	1974
264.56387	1983
264.58499	1978
264.60611	1960
264.6272	1945
264.64832	1934
264.6694	1945
264.69052	1937
264.71161	1943
264.73273	1944
264.75381	1980
264.77493	1968
264.79602	1940
264.81714	1940
264.83823	1934
264.85934	1949
264.88043	1952
264.90152	1946
264.92264	1946
264.94373	1962
264.96484	1953
264.98593	1933
265.00705	1929
265.02814	1956
265.04922	1960
265.07034	1972
265.09143	1972
265.11252	1967
265.13364	1962
265.15472	1969
265.17581	1943
265.19693	1940
265.21802	1946
265.23911	1950
265.26022	1931
265.28131	1939
265.3024	1937
265.32352	1908
265.3446	1905
265.36569	1903
265.38678	1880
265.4079	1928
265.42899	1901
265.45007	1925
265.47116	1904
265.49228	1942
265.51337	1930
265.53445	1912
265.55554	1900
265.57666	1931
265.59775	1924
265.61884	1927
265.63992	1918
265.66101	1920
265.6821	1919
265.70322	1899
265.7243	1889
265.74539	1891
265.76648	1895
265.78757	1903
265.80865	1910
265.82974	1924
265.85083	1918
265.87192	1900
265.89304	1884
265.91412	1848
265.93521	1882
265.9563	1887
265.97739	1882
265.99847	1909
266.01956	1883
266.04065	1888
266.06174	1880
266.08282	1875
266.10391	1881
266.125	1897
266.14609	1894
266.16718	1902
266.18826	1901
266.20935	1885
266.23044	1884
266.25153	1859
266.27261	1893
266.2937	1893
266.31479	1903
266.33588	1917
266.35693	1901
266.37802	1901
266.39911	1891
266.4202	1859
266.44128	1870
266.46237	1891
266.48346	1888
266.50455	1878
266.5256	1929
266.54669	1920
266.56778	1917
266.58887	1898
266.60995	1908
266.63104	1899
266.6521	1906
266.67319	1919
266.69427	1937
266.71536	1923
266.73645	1927
266.75751	1901
266.77859	1898
266.79968	1895
266.82077	1902
266.84183	1920
266.86292	1935
266.884	1918
266.90509	1932
266.92615	1915
266.94724	1894
266.96832	1885
266.98938	1903
267.01047	1929
267.03156	1913
267.05261	1930
267.0737	1922
267.09479	1905
267.11584	1921
267.13693	1915
267.15802	1892
267.17908	1905
267.20016	1922
267.22122	1942
267.24231	1939
267.26337	1925
267.28445	1904
267.30554	1897
267.3266	1899
267.34769	1877
267.36874	1897
267.38983	1905
267.41089	1887
267.43198	1897
267.45303	1889
267.47412	1890
267.49518	1880
267.51627	1872
267.53732	1878
267.55841	1895
267.57947	1917
267.60056	1923
267.62161	1928
267.6427	1920
267.66376	1908
267.68484	1908
267.7059	1927
267.72696	1949
267.74805	1946
267.7691	1956
267.79019	1960
267.81125	1952
267.83231	1924
267.85339	1902
267.87445	1907
267.89551	1909
267.9166	1931
267.93765	1943
267.95871	1969
267.9798	1965
268.00085	1995
268.02191	1942
268.043	1950
268.06406	1957
268.08511	2012
268.10617	2008
268.12726	2019
268.14832	2001
268.16937	1994
268.19043	1981
268.21152	1995
268.23257	1973
268.25363	1996
268.27469	2031
268.29578	2018
268.31683	2001
268.33789	1983
268.35895	1978
268.38	1978
268.40106	1966
268.42215	2010
268.44321	2029
268.46426	2039
268.48532	2027
268.50638	2029
268.52744	2003
268.54849	1995
268.56955	1987
268.59064	2006
268.61169	2030
268.63275	2067
268.65381	2065
268.67487	2088
268.69592	2035
268.71698	2024
268.73804	1992
268.75909	2050
268.78015	2040
268.80121	2071
268.82227	2073
268.84332	2084
268.86438	2094
268.88544	2060
268.90649	2050
268.92755	2052
268.94861	2057
268.96967	2071
268.99072	2091
269.01178	2115
269.03284	2103
269.05389	2098
269.07495	2054
269.09598	2064
269.11703	2062
269.13809	2098
269.15915	2137
269.18021	2149
269.20126	2155
269.22232	2128
269.24338	2076
269.2644	2109
269.28546	2107
269.30652	2142
269.32758	2192
269.34863	2189
269.36969	2195
269.39072	2246
269.41177	2193
269.43283	2155
269.45389	2199
269.47491	2187
269.49597	2209
269.51703	2229
269.53809	2236
269.55911	2245
269.58017	2232
269.60123	2218
269.62228	2187
269.64331	2208
269.66437	2224
269.68542	2230
269.70645	2259
269.72751	2248
269.74857	2270
269.76959	2260
269.79065	2279
269.81171	2277
269.83273	2282
269.85379	2275
269.87482	2315
269.89587	2376
269.91693	2339
269.93796	2332
269.95901	2321
269.98004	2291
270.0011	2319
270.02213	2322
270.04318	2367
270.06424	2387
270.08527	2398
270.10632	2393
270.12735	2372
270.14841	2335
270.16943	2374
270.19049	2341
270.21152	2371
270.23257	2431
270.2536	2453
270.27466	2473
270.29568	2434
270.31671	2409
270.33777	2432
270.3588	2412
270.37985	2432
270.40088	2476
270.42194	2479
270.44296	2515
270.46399	2517
270.48505	2507
270.50607	2498
270.5271	2482
270.54816	2481
270.56918	2545
270.59021	2572
270.61127	2602
270.63229	2617
270.65332	2617
270.67438	2593
270.6954	2569
270.71643	2584
270.73749	2615
270.75851	2658
270.77954	2702
270.80057	2758
270.82162	2722
270.84265	2740
270.86368	2700
270.8847	2702
270.90576	2724
270.92679	2758
270.94781	2762
270.96884	2811
270.98987	2833
271.01093	2809
271.03195	2796
271.05298	2717
271.07401	2721
271.09503	2751
271.11606	2821
271.13712	2853
271.15814	2913
271.17917	2898
271.2002	2921
271.22122	2894
271.24225	2892
271.26328	2875
271.2843	2926
271.30533	2961
271.32635	3018
271.34738	3042
271.36841	3024
271.38947	3018
271.41049	2994
271.43152	2982
271.45255	2965
271.47357	2983
271.4946	3061
271.51563	3113
271.53665	3121
271.55768	3123
271.5787	3119
271.5997	3049
271.62073	3017
271.64175	3061
271.66278	3086
271.68381	3135
271.70483	3170
271.72586	3202
271.74689	3211
271.76791	3179
271.78894	3172
271.80997	3166
271.83096	3207
271.85199	3258
271.87302	3318
271.89404	3335
271.91507	3389
271.9361	3345
271.95712	3351
271.97812	3324
271.99915	3370
272.02017	3426
272.0412	3489
272.06219	3518
272.08322	3536
272.10425	3514
272.12527	3539
272.1463	3483
272.1673	3474
272.18832	3527
272.20935	3556
272.23035	3648
272.25137	3692
272.2724	3721
272.29343	3754
272.31442	3738
272.33545	3702
272.35648	3719
272.37747	3746
272.3985	3798
272.41953	3930
272.44052	3964
272.46155	3989
272.48254	3980
272.50357	3932
272.5246	3885
272.54559	3899
272.56662	3966
272.58762	4059
272.60864	4090
272.62964	4135
272.65067	4153
272.67169	4189
272.69269	4196
272.71371	4128
272.73471	4172
272.75574	4245
272.77673	4255
272.79776	4326
272.81876	4335
272.83978	4373
272.86078	4366
272.88181	4331
272.9028	4339
272.9238	4427
272.94482	4447
272.96582	4556
272.98685	4596
273.00784	4612
273.02887	4610
273.04987	4518
273.07086	4557
273.09189	4576
273.11288	4593
273.13388	4627
273.15491	4709
273.1759	4808
273.19693	4807
273.21793	4871
273.23892	4807
273.25995	4825
273.28094	4804
273.30194	4880
273.32294	4981
273.34396	5114
273.36496	5148
273.38596	5186
273.40695	5206
273.42798	5167
273.44897	5197
273.46997	5220
273.49097	5279
273.51199	5407
273.53299	5429
273.55399	5511
273.57498	5440
273.59598	5420
273.617	5404
273.638	5401
273.659	5440
273.67999	5597
273.70099	5709
273.72198	5712
273.74301	5771
273.76401	5816
273.785	5868
273.806	5851
273.827	5858
273.84799	5869
273.86899	5957
273.88998	6006
273.91098	6125
273.93198	6132
273.95297	6170
273.97397	6131
273.99496	6163
274.01596	6165
274.03696	6172
274.05795	6303
274.07895	6372
274.09995	6474
274.12094	6529
274.14194	6528
274.16293	6561
274.18393	6544
274.20493	6509
274.22592	6462
274.24692	6545
274.26791	6629
274.28891	6736
274.30991	6872
274.3309	6903
274.3519	6860
274.37289	6905
274.39386	6921
274.41486	6945
274.43585	6982
274.45685	7029
274.47784	7120
274.49884	7191
274.51981	7244
274.5408	7245
274.5618	7199
274.58279	7224
274.60379	7252
274.62476	7339
274.64575	7413
274.66675	7368
274.68774	7451
274.70874	7475
274.72971	7486
274.7507	7515
274.7717	7473
274.79266	7425
274.81366	7488
274.83466	7540
274.85565	7717
274.87662	7692
274.89761	7689
274.91861	7656
274.93958	7531
274.96057	7615
274.98154	7663
275.00253	7813
275.02353	7906
275.04449	7989
275.06549	7934
275.08649	7977
275.10745	7927
275.12845	7978
275.14941	7965
275.17041	8031
275.19138	8095
275.21237	8141
275.23337	8084
275.25433	8083
275.27533	8108
275.2963	8048
275.31729	7993
275.33826	7967
275.35925	7938
275.38022	8006
275.40121	8079
275.42218	8073
275.44315	8158
275.46414	8094
275.48511	8040
275.5061	8074
275.52707	8192
275.54807	8135
275.56903	8062
275.59	8139
275.61099	8168
275.63196	8110
275.65295	8139
275.67392	8093
275.69489	8090
275.71588	8049
275.73685	8038
275.75781	7939
275.77881	7962
275.79977	7975
275.82074	7943
275.84174	7887
275.8627	7857
275.88367	7810
275.90463	7767
275.92563	7726
275.94659	7740
275.96756	7776
275.98853	7768
276.00952	7762
276.03049	7713
276.05145	7628
276.07242	7562
276.09341	7550
276.11438	7612
276.13535	7576
276.15631	7607
276.17728	7575
276.19824	7549
276.21924	7420
276.2402	7363
276.26117	7298
276.28214	7384
276.3031	7355
276.32407	7453
276.34503	7431
276.366	7474
276.38696	7393
276.40796	7278
276.42892	7238
276.44989	7237
276.47086	7272
276.49182	7224
276.51279	7266
276.53375	7293
276.55472	7280
276.57568	7219
276.59665	7195
276.61761	7138
276.63858	7071
276.65955	6970
276.68051	6946
276.70148	6949
276.72244	6995
276.74341	7007
276.76434	6859
276.78531	6736
276.80627	6717
276.82724	6688
276.84821	6692
276.86917	6720
276.89014	6681
276.9111	6673
276.93207	6617
276.953	6619
276.97397	6569
276.99493	6473
277.0159	6474
277.03687	6412
277.05783	6422
277.07877	6414
277.09973	6373
277.1207	6329
277.14166	6347
277.16263	6206
277.18356	6123
277.20453	6140
277.22549	6081
277.24646	6078
277.2674	6087
277.28836	6064
277.30933	6036
277.33026	5923
277.35123	5883
277.37219	5791
277.39313	5683
277.41409	5711
277.43506	5714
277.45599	5758
277.47696	5727
277.49792	5687
277.51886	5632
277.53983	5579
277.56079	5540
277.58173	5510
277.60269	5500
277.62363	5520
277.64459	5522
277.66553	5453
277.68649	5428
277.70746	5409
277.72839	5396
277.74936	5345
277.77029	5283
277.79126	5260
277.81219	5210
277.83316	5183
277.8541	5165
277.87506	5170
277.896	5135
277.91696	5101
277.9379	5117
277.95883	5090
277.9798	5049
278.00073	5003
278.0217	5025
278.04263	4956
278.0636	4938
278.08453	4984
278.10547	4990
278.12643	4995
278.14737	4921
278.16833	4822
278.18927	4811
278.21021	4777
278.23117	4813
278.25211	4742
278.27304	4763
278.29398	4824
278.31494	4749
278.33588	4639
278.35681	4598
278.37778	4553
278.39871	4576
278.41965	4530
278.44058	4582
278.46155	4586
278.48248	4534
278.50342	4505
278.52435	4422
278.54532	4409
278.56625	4364
278.58719	4362
278.60812	4377
278.62906	4417
278.64999	4450
278.67096	4429
278.69189	4358
278.71283	4283
278.73376	4223
278.7547	4141
278.77563	4082
278.79657	4084
278.8175	4069
278.83847	4094
278.85941	4117
278.88034	4095
278.90128	4099
278.92221	4060
278.94315	3957
278.96408	3936
278.98502	3937
279.00595	3944
279.02689	3991
279.04782	4048
279.06876	4056
279.08969	4052
279.11063	3986
279.13156	3904
279.1525	3904
279.17343	3857
279.19437	3884
279.2153	3889
279.23624	3885
279.25717	3926
279.27808	3900
279.29901	3744
279.31995	3805
279.34088	3741
279.36182	3800
279.38275	3761
279.40369	3808
279.42462	3770
279.44553	3786
279.46646	3814
279.4874	3792
279.50833	3763
279.52927	3706
279.55017	3694
279.57111	3659
279.59204	3659
279.61298	3690
279.63391	3706
279.65482	3689
279.67575	3692
279.69669	3653
279.71759	3591
279.73853	3502
279.75946	3512
279.7804	3523
279.8013	3570
279.82224	3572
279.84317	3622
279.86407	3627
279.88501	3544
279.90594	3532
279.92685	3442
279.94778	3403
279.96872	3419
279.98962	3437
280.01056	3522
280.03146	3563
280.0524	3529
280.07333	3529
280.09424	3483
280.11517	3408
280.13608	3357
280.15701	3354
280.17792	3317
280.19885	3405
280.21976	3435
280.24069	3467
280.2616	3422
280.28253	3392
280.30344	3353
280.32437	3280
280.34528	3249
280.36621	3257
280.38712	3279
280.40805	3292
280.42896	3328
280.44986	3340
280.47079	3313
280.4917	3253
280.51263	3198
280.53354	3134
280.55444	3166
280.57538	3162
280.59628	3200
280.61722	3243
280.63812	3243
280.65903	3246
280.67996	3228
280.70087	3193
280.72177	3095
280.74268	3077
280.76361	3078
280.78452	3115
280.80542	3121
280.82635	3185
280.84726	3204
280.86816	3155
280.88907	3118
280.91	3098
280.93091	3022
280.95181	3031
280.97272	3005
280.99362	3113
281.01456	3147
281.03546	3184
281.05637	3125
281.07727	3113
281.09818	3055
281.11908	2990
281.13998	2964
281.16092	2966
281.18182	3002
281.20273	3050
281.22363	3107
281.24454	3113
281.26544	3061
281.28635	3006
281.30725	2944
281.32816	2921
281.34906	2928
281.36996	2977
281.39087	3002
281.41177	3036
281.43268	3117
281.45358	3091
281.47449	3044
281.49539	2959
281.5163	2885
281.5372	2840
