Date and Time:                Tue Jan 31 14:31:15.000 2023
Software Version:             4.31.30023.0
Temperature (C):              -40
Model:                        DU940P_BU2
Data Type:                    Counts
Acquisition Mode:             Single Scan
Trigger Mode:                 Internal
Exposure Time (secs):         80
Readout Mode:                 Full Vertical Binning
Horizontal binning:           1
Extended Dynamic Range:       off
Horizontally flipped:         false
Vertical Shift Speed (usecs): 14.51
Pixel Readout Rate (MHz):     3
Baseline Clamp:               ON
Clock Amplitude:              Normal
Output Amplifier:             High Capacity
Serial Number:                23634
Pre-Amplifier Gain:           1.000000
Spurious Noise Filter Mode:   No Filter
Photon counted:               false
Data Averaging Filter Mode:   No Filter
SR500i:
Serial Number:                
Wavelength (nm):              214
Grating Groove Density (l/mm):1199.47
Grating Blaze:                500
Output Flipper Port:          Direct
Accessory Output Port 1:      Off
Accessory Output Port 2:      Off
Accessory Output Port 3:      Off
Accessory Input Port:         On



192.0349	570
192.05646	532
192.078	521
192.09956	519
192.12112	522
192.14268	518
192.16425	505
192.18581	491
192.20735	481
192.22891	485
192.25047	495
192.27203	500
192.29358	500
192.31514	506
192.3367	507
192.35826	492
192.37981	509
192.40137	492
192.42293	526
192.44449	490
192.46603	490
192.48759	511
192.50916	531
192.5307	509
192.55226	499
192.57381	500
192.59537	515
192.61693	519
192.63847	513
192.66003	510
192.68159	486
192.70314	495
192.7247	498
192.74625	533
192.76781	512
192.78935	542
192.81091	529
192.83246	511
192.85402	513
192.87556	519
192.89713	505
192.91867	540
192.94023	527
192.96178	531
192.98334	537
193.00488	529
193.02643	505
193.04799	496
193.06953	522
193.09109	529
193.11264	528
193.13419	537
193.15575	532
193.17729	543
193.19884	534
193.2204	539
193.24194	521
193.26349	555
193.28505	542
193.30659	530
193.32814	534
193.34969	534
193.37125	566
193.39279	532
193.41434	527
193.43588	519
193.45744	529
193.47899	534
193.50053	554
193.52208	543
193.54362	538
193.56517	539
193.58673	559
193.60828	533
193.62982	545
193.65137	549
193.67291	536
193.69446	523
193.716	522
193.73755	525
193.75909	539
193.78064	534
193.80219	525
193.82375	538
193.84529	529
193.86684	535
193.88838	533
193.90993	538
193.93147	535
193.953	545
193.97455	533
193.99609	528
194.01764	541
194.03918	542
194.06073	538
194.08228	531
194.10382	554
194.12537	537
194.14691	541
194.16846	531
194.18999	543
194.21153	525
194.23308	532
194.25462	537
194.27617	539
194.29771	540
194.31924	544
194.34079	539
194.36234	558
194.38388	580
194.40541	535
194.42696	545
194.4485	529
194.47005	526
194.49158	523
194.51312	515
194.53467	512
194.5562	518
194.57774	519
194.59929	515
194.62082	514
194.64236	518
194.66391	510
194.68544	512
194.70699	535
194.72852	555
194.75006	534
194.77161	513
194.79314	515
194.81468	553
194.83621	545
194.85776	537
194.87929	507
194.90083	529
194.92236	545
194.94391	538
194.96544	547
194.98698	531
195.00851	512
195.03006	512
195.05159	546
195.07312	540
195.09467	551
195.1162	557
195.13774	541
195.15927	549
195.1808	530
195.20235	535
195.22388	548
195.24541	582
195.26695	561
195.28848	564
195.31001	561
195.33156	555
195.35309	553
195.37462	543
195.39616	550
195.41769	566
195.43922	561
195.46075	569
195.48228	604
195.50383	571
195.52536	559
195.54689	556
195.56842	554
195.58995	566
195.6115	566
195.63303	580
195.65456	566
195.67609	593
195.69762	579
195.71915	571
195.74068	575
195.76221	567
195.78374	569
195.80528	564
195.82681	563
195.84834	569
195.86987	571
195.8914	600
195.91293	569
195.93446	567
195.95599	598
195.97752	569
195.99905	583
196.02058	585
196.0421	588
196.06363	596
196.08516	597
196.10669	588
196.12822	606
196.14975	599
196.17128	595
196.19281	590
196.21434	586
196.23586	627
196.25739	592
196.27892	591
196.30045	600
196.32198	603
196.34351	589
196.36502	601
196.38655	596
196.40808	604
196.42961	598
196.45113	603
196.47266	612
196.49419	600
196.5157	603
196.53723	636
196.55876	624
196.58029	616
196.60181	614
196.62334	614
196.64485	613
196.66638	644
196.68791	616
196.70943	624
196.73096	611
196.75249	622
196.774	635
196.79553	647
196.81705	640
196.83858	633
196.86009	640
196.88162	631
196.90314	643
196.92467	635
196.94618	634
196.96771	616
196.98923	626
197.01076	636
197.03227	629
197.0538	680
197.07532	617
197.09683	644
197.11836	641
197.13988	617
197.16141	625
197.18292	659
197.20444	660
197.22597	627
197.24748	662
197.269	657
197.29053	668
197.31204	668
197.33356	654
197.35509	640
197.3766	644
197.39812	680
197.41963	670
197.44116	668
197.46268	669
197.48419	668
197.50571	685
197.52722	689
197.54875	720
197.57027	680
197.59178	683
197.6133	690
197.63481	674
197.65633	686
197.67784	685
197.69937	700
197.72089	739
197.7424	716
197.76392	702
197.78543	702
197.80695	696
197.82846	693
197.84998	711
197.87149	709
197.89301	700
197.91452	707
197.93604	710
197.95755	711
197.97906	714
198.00058	724
198.02209	724
198.04361	711
198.06512	719
198.08664	729
198.10814	721
198.12965	721
198.15117	709
198.17268	724
198.1942	736
198.21571	715
198.23723	719
198.25873	734
198.28024	741
198.30176	727
198.32327	739
198.34479	738
198.36629	751
198.3878	775
198.40932	787
198.43083	739
198.45233	766
198.47385	759
198.49536	766
198.51686	769
198.53838	772
198.55989	769
198.58139	776
198.60291	772
198.62442	778
198.64592	776
198.66743	769
198.68895	809
198.71045	791
198.73196	795
198.75346	790
198.77498	788
198.79648	793
198.81799	803
198.83949	797
198.86101	800
198.88251	810
198.90402	813
198.92552	806
198.94704	825
198.96854	809
198.99005	822
199.01155	819
199.03307	822
199.05457	833
199.07607	826
199.09758	842
199.11908	824
199.14059	831
199.16209	828
199.18359	877
199.20511	839
199.22661	856
199.24811	856
199.26961	876
199.29112	866
199.31262	894
199.33412	870
199.35564	881
199.37714	868
199.39864	894
199.42014	934
199.44164	897
199.46315	890
199.48465	880
199.50615	892
199.52765	896
199.54915	900
199.57065	899
199.59216	901
199.61366	894
199.63516	895
199.65666	898
199.67816	919
199.69966	908
199.72116	898
199.74266	915
199.76416	929
199.78566	929
199.80716	933
199.82866	959
199.85016	966
199.87166	960
199.89316	969
199.91466	974
199.93616	958
199.95766	972
199.97916	981
200.00066	988
200.02216	990
200.04366	1005
200.06516	993
200.08664	1005
200.10814	983
200.12964	993
200.15114	998
200.17264	1035
200.19414	1032
200.21562	1033
200.23712	1055
200.25862	1029
200.28012	1038
200.30161	1031
200.3231	1028
200.3446	1059
200.3661	1054
200.38759	1063
200.40909	1074
200.43059	1097
200.45207	1073
200.47357	1079
200.49507	1090
200.51656	1093
200.53806	1110
200.55956	1094
200.58104	1107
200.60254	1104
200.62402	1114
200.64552	1130
200.66702	1134
200.68851	1120
200.71001	1223
200.73149	1143
200.75299	1142
200.77448	1156
200.79597	1150
200.81746	1158
200.83896	1167
200.86044	1179
200.88194	1185
200.90343	1180
200.92491	1201
200.94641	1226
200.9679	1191
200.9894	1196
201.01088	1194
201.03236	1223
201.05386	1242
201.07535	1232
201.09683	1236
201.11833	1239
201.13982	1288
201.1613	1261
201.1828	1273
201.20428	1299
201.22577	1286
201.24725	1301
201.26875	1295
201.29024	1310
201.31172	1307
201.33321	1318
201.35469	1336
201.37619	1321
201.39767	1346
201.41916	1353
201.44064	1394
201.46213	1368
201.48361	1386
201.50511	1410
201.5266	1415
201.54808	1412
201.56956	1418
201.59105	1440
201.61253	1433
201.63402	1435
201.6555	1482
201.67699	1445
201.69847	1458
201.71996	1474
201.74144	1482
201.76292	1526
201.78441	1493
201.80589	1531
201.82738	1518
201.84886	1532
201.87035	1528
201.89183	1552
201.9133	1566
201.93478	1576
201.95627	1562
201.97775	1598
201.99924	1607
202.02072	1603
202.04221	1631
202.06367	1605
202.08516	1623
202.10664	1623
202.12813	1647
202.14961	1665
202.17108	1685
202.19257	1683
202.21405	1706
202.23553	1699
202.257	1715
202.27849	1714
202.29997	1720
202.32144	1724
202.34293	1732
202.36441	1735
202.38588	1758
202.40736	1789
202.42883	1782
202.45032	1824
202.4718	1800
202.49327	1813
202.51476	1984
202.53622	1812
202.55771	1838
202.57918	1859
202.60066	1891
202.62213	1872
202.64362	2135
202.66508	2072
202.68657	1955
202.70804	1934
202.72952	1982
202.75099	1948
202.77248	1979
202.79395	1988
202.81543	1989
202.8369	2006
202.85837	2027
202.87985	2018
202.90132	2044
202.92279	2067
202.94427	2098
202.96574	2128
202.98721	2130
203.0087	2132
203.03017	2145
203.05164	2145
203.0731	2242
203.09459	2225
203.11606	2218
203.13753	2225
203.159	2257
203.18048	2299
203.20195	2288
203.22342	2302
203.24489	2310
203.26636	2354
203.28783	2339
203.30931	2383
203.33078	2384
203.35225	2379
203.37372	2402
203.39519	2404
203.41666	2432
203.43813	2469
203.45959	2437
203.48106	2476
203.50253	2476
203.524	2495
203.54547	2503
203.56694	2515
203.58841	2538
203.60988	2620
203.63135	2582
203.65282	2618
203.67429	2624
203.69576	2645
203.71722	2669
203.73869	2681
203.76016	2673
203.78163	2693
203.80309	2711
203.82455	2724
203.84602	2729
203.86749	2770
203.88896	2786
203.91043	2806
203.93188	2821
203.95335	2838
203.97482	2867
203.99629	2878
204.01775	2887
204.03922	2970
204.06068	2957
204.08215	2954
204.10361	2997
204.12508	3021
204.14655	3052
204.168	3032
204.18947	3128
204.21094	3087
204.23239	3101
204.25386	3132
204.27531	3126
204.29678	3165
204.31825	3186
204.33971	3183
204.36118	3253
204.38263	3300
204.4041	3333
204.42555	3346
204.44702	3372
204.46848	3395
204.48994	3443
204.5114	3474
204.53287	3454
204.55432	3509
204.57579	3538
204.59724	3557
204.6187	3589
204.64017	3635
204.66162	3659
204.68309	3699
204.70454	3735
204.726	3756
204.74747	3771
204.76892	3794
204.79037	3819
204.81184	3888
204.8333	3939
204.85475	3912
204.87621	3935
204.89767	3989
204.91913	3994
204.94058	4022
204.96204	4051
204.98351	4120
205.00496	4176
205.02641	4178
205.04787	4233
205.06932	4244
205.09077	4251
205.11224	4318
205.1337	4340
205.15515	4422
205.17661	4441
205.19806	4448
205.21951	4501
205.24097	4550
205.26242	4595
205.28387	4608
205.30533	4684
205.32678	4689
205.34824	4719
205.36969	4720
205.39114	4775
205.4126	4791
205.43405	4825
205.45551	4864
205.47696	4917
205.49841	4970
205.51987	4996
205.54132	5037
205.56277	5091
205.58421	5130
205.60567	5171
205.62712	5217
205.64857	5273
205.67003	5299
205.69148	5373
205.71292	5386
205.73438	5418
205.75583	5482
205.77728	5573
205.79872	5614
205.82018	5675
205.84163	5752
205.86308	5853
205.88452	5852
205.90598	5861
205.92743	5891
205.94887	6012
205.97032	6029
205.99178	6076
206.01321	6144
206.03467	6168
206.05611	6206
206.07756	6255
206.09901	6272
206.12045	6365
206.14191	6347
206.16335	6478
206.1848	6545
206.20624	6565
206.22769	6599
206.24913	6665
206.27058	6741
206.29202	6749
206.31348	6770
206.33492	6878
206.35637	6884
206.37781	6899
206.39925	6951
206.4207	7018
206.44214	7063
206.46359	7113
206.48503	7208
206.50647	7305
206.52792	7345
206.54936	7404
206.5708	7498
206.59224	7577
206.61369	7592
206.63513	7650
206.65657	7655
206.67802	7723
206.69946	7763
206.7209	7766
206.74234	7810
206.76378	7933
206.78523	7982
206.80667	7987
206.82811	8048
206.84955	8093
206.87099	8215
206.89243	8170
206.91386	8266
206.93532	8376
206.95676	8515
206.9782	8493
206.99963	8566
207.02107	8638
207.04251	8728
207.06395	8743
207.08539	8806
207.10683	8913
207.12827	8931
207.1497	8976
207.17114	9035
207.19258	9139
207.21402	9272
207.23546	9266
207.2569	9351
207.27832	9462
207.29976	9653
207.3212	9708
207.34264	9704
207.36407	9779
207.38551	9840
207.40695	9885
207.42838	9962
207.44981	10119
207.47125	10276
207.49269	10366
207.51413	10375
207.53555	10497
207.55699	10501
207.57843	10578
207.59985	10675
207.62129	10775
207.64273	10886
207.66417	10896
207.68559	10951
207.70703	11075
207.72845	11148
207.74989	11200
207.77133	11155
207.79276	11318
207.81419	11390
207.83562	11394
207.85706	11535
207.87849	11629
207.89992	11670
207.92136	11753
207.94278	11859
207.96422	12019
207.98564	12175
208.00708	12233
208.0285	12370
208.04994	12370
208.07137	12457
208.09279	12474
208.11423	12550
208.13565	12606
208.15709	12686
208.17851	12664
208.19994	12860
208.22137	13003
208.2428	13031
208.26422	13072
208.28566	13249
208.30708	13351
208.32851	13411
208.34995	13480
208.37137	13573
208.39279	13690
208.41422	14003
208.43565	13961
208.45708	14066
208.4785	14199
208.49992	14212
208.52135	14235
208.54279	14321
208.56421	14404
208.58563	14573
208.60706	14638
208.62848	14746
208.6499	14839
208.67133	14855
208.69275	14944
208.71417	15123
208.7356	15336
208.75703	15458
208.77846	15620
208.79988	15607
208.8213	15655
208.84273	15874
208.86415	15867
208.88556	16091
208.90698	16279
208.92841	16508
208.94983	16588
208.97125	16660
208.99268	16805
209.0141	16969
209.03552	16992
209.05695	17116
209.07837	17233
209.09978	17282
209.1212	17393
209.14262	17485
209.16405	17629
209.18547	17751
209.20688	17795
209.2283	17885
209.24973	17945
209.27115	18044
209.29256	18078
209.31398	18232
209.3354	18470
209.35683	18529
209.37823	18684
209.39966	18836
209.42108	19025
209.44249	19234
209.46391	19271
209.48532	19374
209.50674	19450
209.52817	19503
209.54958	19572
209.571	19688
209.59241	19832
209.61383	19935
209.63524	19964
209.65666	20007
209.67807	20321
209.69949	20549
209.7209	20641
209.74232	20821
209.76373	20891
209.78516	20931
209.80656	21088
209.82797	21039
209.8494	21238
209.8708	21363
209.89223	21468
209.91364	21601
209.93504	21878
209.95647	21961
209.97787	21975
209.99928	21954
210.02071	22082
210.04211	22160
210.06352	22321
210.08493	22502
210.10635	22672
210.12776	22730
210.14917	22798
210.17058	22876
210.19199	23144
210.21341	23303
210.23482	23434
210.25623	23466
210.27763	23619
210.29904	23748
210.32045	23802
210.34186	23852
210.36327	24016
210.38469	24228
210.4061	24385
210.42751	24558
210.44891	24766
210.47032	25030
210.49173	25183
210.51314	25351
210.53455	25482
210.55595	25716
210.57736	25893
210.59877	25984
210.62018	26250
210.64157	26477
210.66298	26455
210.68439	26490
210.7058	26613
210.7272	26588
210.74861	26717
210.77002	26984
210.79143	27141
210.81282	27205
210.83423	27283
210.85564	27467
210.87704	27624
210.89844	27763
210.91985	27793
210.94125	28093
210.96266	28240
210.98405	28339
211.00546	28332
211.02687	28354
211.04826	28439
211.06967	28690
211.09108	28676
211.11247	28976
211.13388	29208
211.15529	29363
211.17668	29259
211.19809	29146
211.21948	29058
211.24089	29078
211.2623	29186
211.28369	29256
211.3051	29557
211.32649	29739
211.3479	29596
211.36929	29782
211.3907	29859
211.41209	30046
211.43349	30125
211.4549	30216
211.47629	30453
211.4977	30466
211.51909	30551
211.54048	30679
211.56189	30792
211.58328	30852
211.60469	30839
211.62608	31035
211.64748	31444
211.66887	31817
211.69028	31748
211.71167	31727
211.73306	31647
211.75447	31770
211.77586	32021
211.79726	32167
211.81865	32268
211.84004	32570
211.86145	32637
211.88284	32670
211.90424	32786
211.92563	32822
211.94702	32943
211.96841	33229
211.98981	33387
212.01122	33378
212.03261	33328
212.054	33322
212.07539	33486
212.09679	33556
212.11818	33664
212.13957	33784
212.16096	33751
212.18236	33801
212.20375	33874
212.22514	33983
212.24654	34185
212.26793	34130
212.28932	34316
212.3107	34525
212.33209	34732
212.35349	34832
212.37488	35046
212.39627	34974
212.41766	35065
212.43906	34966
212.46043	34841
212.48183	34764
212.50322	34876
212.52461	34809
212.54601	34699
212.56738	34666
212.58878	34891
212.61017	34750
212.63156	34900
212.65294	34724
212.67433	34710
212.69572	34542
212.7171	34566
212.73849	34691
212.75989	35146
212.78127	35149
212.80266	35175
212.82404	35242
212.84543	35166
212.86681	35161
212.8882	35284
212.90959	35483
212.93097	35477
212.95236	35568
212.97374	35687
212.99513	35639
213.01651	35655
213.0379	35679
213.05928	35743
213.08066	35892
213.10205	36351
213.12343	36723
213.14482	36733
213.1662	36672
213.18758	36499
213.20897	36320
213.23035	36225
213.25172	36401
213.27312	36737
213.29449	37109
213.31587	37054
213.33727	37102
213.35864	36955
213.38002	37001
213.4014	36684
213.42279	36755
213.44417	36878
213.46555	36790
213.48692	36482
213.5083	36191
213.52969	36229
213.55107	36154
213.57245	36080
213.59383	36055
213.6152	36188
213.63658	36251
213.65796	36276
213.67934	36191
213.70071	36271
213.72209	36205
213.74347	36349
213.76485	36735
213.78622	36837
213.8076	36833
213.82898	36836
213.85036	36938
213.87173	36944
213.89311	36900
213.91449	36551
213.93587	36317
213.95724	36390
213.97862	36328
214	35910
214.02138	36158
214.04274	36887
214.06412	36603
214.08549	36726
214.10687	36709
214.12825	36741
214.14961	36652
214.17099	36570
214.19237	36635
214.21375	36722
214.23511	36631
214.25648	36791
214.27786	36603
214.29922	36770
214.3206	36554
214.34198	36319
214.36334	36302
214.38472	36151
214.4061	35976
214.42746	36090
214.44884	36114
214.4702	35983
214.49158	36035
214.51294	35868
214.53432	36021
214.55568	36126
214.57706	36072
214.59842	36102
214.6198	35873
214.64116	35835
214.66254	35842
214.6839	35621
214.70528	35647
214.72664	35777
214.74802	35821
214.76938	35728
214.79074	35736
214.81212	35503
214.83348	35626
214.85484	35575
214.87622	35315
214.89758	35508
214.91895	35301
214.94031	35139
214.96169	35105
214.98305	35092
215.00441	34978
215.02577	34808
215.04715	34705
215.06851	34649
215.08987	34598
215.11124	34536
215.1326	34420
215.15396	34284
215.17534	34331
215.1967	34348
215.21806	34380
215.23943	34177
215.26079	34143
215.28215	34165
215.30351	34015
215.32487	33893
215.34624	33748
215.3676	33612
215.38896	33580
215.41032	33592
215.43169	33359
215.45305	33256
215.47441	33299
215.49577	33195
215.51714	33064
215.5385	32795
215.55986	32646
215.58121	32484
215.60257	32274
215.62393	31886
215.64529	31600
215.66666	31595
215.68802	31522
215.70937	31376
215.73073	31380
215.75209	31331
215.77345	31215
215.7948	30996
215.81616	30910
215.83752	30778
215.85889	30715
215.88023	30694
215.9016	30786
215.92296	30881
215.94431	30731
215.96567	30630
215.98701	30635
216.00838	30706
216.02974	30817
216.05109	30688
216.07245	30497
216.0938	30438
216.11516	30282
216.13651	29862
216.15787	29878
216.17921	29979
216.20058	29890
216.22192	29841
216.24329	29864
216.26463	29962
216.286	30000
216.30734	29837
216.32869	29689
216.35005	29477
216.3714	29525
216.39275	29555
216.41411	29613
216.43546	29690
216.4568	29573
216.47816	29384
216.49951	29151
216.52086	28923
216.54222	28833
216.56357	28629
216.58492	28813
216.60626	28722
216.62761	28639
216.64897	28633
216.67032	28516
216.69167	28525
216.71301	28248
216.73436	28312
216.75571	28366
216.77705	28243
216.79842	28123
216.81976	27833
216.84111	27626
216.86246	27587
216.8838	27516
216.90515	27533
216.9265	27527
216.94785	27703
216.96919	27529
216.99054	27217
217.01189	27214
217.03323	26928
217.05458	26810
217.07591	26733
217.09726	26774
217.11861	26763
217.13995	26728
217.1613	26520
217.18265	26439
217.20399	26435
217.22533	26405
217.24667	26250
217.26802	26161
217.28937	26118
217.31071	26015
217.33205	25912
217.35339	25738
217.37474	25604
217.39609	25583
217.41742	25354
217.43877	25467
217.46011	25606
217.48145	25610
217.50279	25283
217.52412	25116
217.54547	24972
217.56682	24951
217.58815	24929
217.6095	24904
217.63083	24980
217.65218	25041
217.67351	24824
217.69485	24706
217.71619	24527
217.73753	24527
217.75887	24427
217.78021	24422
217.80154	24412
217.82289	24222
217.84422	24080
217.86557	23936
217.8869	23819
217.90823	23717
217.92958	23658
217.95091	23379
217.97224	23316
217.99359	23261
218.01492	23168
218.03625	23040
218.05759	22947
218.07893	22976
218.10027	22889
218.1216	22950
218.14293	22945
218.16428	22640
218.18561	22570
218.20694	22617
218.22827	22537
218.2496	22359
218.27094	22244
218.29228	22111
218.31361	21935
218.33495	21805
218.35628	21674
218.37761	21670
218.39894	21644
218.42027	21642
218.4416	21462
218.46294	21385
218.48427	21198
218.5056	21153
218.52693	21142
218.54826	21156
218.5696	21216
218.59093	21264
218.61226	21139
218.63359	21021
218.65492	20938
218.67624	20833
218.69757	20696
218.7189	20648
218.74023	20679
218.76157	20597
218.7829	20470
218.80421	20411
218.82555	20343
218.84688	20229
218.86821	20186
218.88953	20259
218.91086	20327
218.93219	20295
218.95351	20264
218.97484	20193
218.99617	20092
219.01749	20092
219.03882	20109
219.06015	20158
219.08147	20189
219.1028	20208
219.12411	20092
219.14545	20086
219.16678	20087
219.1881	20025
219.20943	19823
219.23074	19799
219.25208	19677
219.27339	19604
219.29472	19505
219.31604	19415
219.33736	19380
219.35869	19299
219.38	19153
219.40134	19069
219.42265	19005
219.44397	19001
219.4653	19007
219.48662	18874
219.50793	18819
219.52927	18810
219.55058	18732
219.5719	18816
219.59323	18819
219.61455	18704
219.63586	18655
219.65718	18546
219.6785	18480
219.69983	18399
219.72115	18273
219.74246	18297
219.76378	18119
219.7851	18028
219.80641	17965
219.82773	17936
219.84906	18027
219.87038	17864
219.89169	17899
219.91301	17923
219.93433	17795
219.95564	17658
219.97696	17569
219.99828	17522
220.01959	17463
220.04091	17488
220.06223	17404
220.08354	17450
220.10486	17468
220.12617	17321
220.14748	17232
220.16879	17185
220.19011	17149
220.21143	17072
220.23274	17053
220.25406	17055
220.27536	16992
220.29668	16957
220.31799	16844
220.33931	16896
220.36063	16818
220.38193	16842
220.40324	16733
220.42456	16678
220.44586	16650
220.46718	16590
220.48849	16545
220.5098	16491
220.53111	16491
220.55243	16494
220.57373	16392
220.59505	16337
220.61636	16465
220.63766	16340
220.65898	16277
220.68028	16220
220.7016	16250
220.7229	16064
220.74422	16096
220.76552	16040
220.78683	16033
220.80814	15948
220.82945	15899
220.85075	15800
220.87206	15683
220.89337	15671
220.91467	15682
220.93599	15687
220.95729	15563
220.97859	15475
220.99991	15488
221.02121	15378
221.04251	15368
221.06381	15375
221.08513	15315
221.10643	15303
221.12773	15215
221.14903	15147
221.17035	15020
221.19165	15043
221.21295	15028
221.23425	14922
221.25555	14900
221.27686	14902
221.29817	14871
221.31947	14812
221.34077	14774
221.36208	14640
221.38338	14559
221.40468	14430
221.42598	14316
221.44728	14214
221.46858	14083
221.48988	14034
221.51118	14020
221.53249	14101
221.55379	14049
221.57509	13924
221.59639	13794
221.61769	13747
221.63899	13693
221.66028	13692
221.68158	13821
221.70288	13752
221.72418	13753
221.74548	13721
221.76678	13648
221.78807	13674
221.80937	13682
221.83067	13653
221.85197	13604
221.87326	13566
221.89456	13504
221.91586	13447
221.93716	13256
221.95845	13265
221.97975	13205
222.00105	13161
222.02234	13159
222.04364	13214
222.06493	13178
222.08623	13265
222.10753	13090
222.12881	13063
222.15012	13030
222.1714	13103
222.1927	13061
222.21399	13033
222.23529	13056
222.25658	12995
222.27788	12936
222.29916	12874
222.32045	12804
222.34175	12834
222.36304	12724
222.38434	12832
222.40562	12760
222.42691	12693
222.44821	12593
222.4695	12620
222.49078	12592
222.51208	12571
222.53337	12538
222.55466	12465
222.57594	12420
222.59724	12392
222.61853	12264
222.63982	12229
222.6611	12223
222.68239	12281
222.70369	12263
222.72498	12257
222.74626	12249
222.76755	12150
222.78883	12105
222.81012	11913
222.83141	11899
222.85269	11930
222.87398	11823
222.89526	11775
222.91656	11784
222.93785	11753
222.95914	11653
222.98041	11744
223.00169	11706
223.02298	11594
223.04427	11498
223.06555	11439
223.08684	11453
223.10812	11414
223.12941	11274
223.1507	11281
223.17198	11174
223.19325	11145
223.21454	11105
223.23582	11199
223.25711	11225
223.2784	11232
223.29967	11188
223.32095	11122
223.34224	10981
223.36353	11003
223.3848	10977
223.40608	11030
223.42737	11106
223.44864	11156
223.46992	11112
223.4912	11173
223.51248	11170
223.53377	11062
223.55504	11067
223.57632	11030
223.5976	11024
223.61888	10984
223.64015	10942
223.66144	10903
223.68271	10910
223.70399	10881
223.72527	10836
223.74655	10751
223.76782	10725
223.78911	10696
223.81038	10655
223.83165	10655
223.85294	10702
223.87421	10656
223.89549	10660
223.91676	10698
223.93803	10644
223.9593	10591
223.98059	10622
224.00186	10633
224.02313	10604
224.04442	10544
224.06569	10505
224.08696	10494
224.10823	10457
224.1295	10432
224.15077	10372
224.17206	10325
224.19333	10336
224.2146	10299
224.23587	10306
224.25714	10234
224.27841	10214
224.29968	10193
224.32095	10153
224.34222	10118
224.36349	10163
224.38477	10198
224.40604	10146
224.42731	10110
224.44858	10120
224.46985	10028
224.49112	9996
224.51239	10042
224.53366	10013
224.55493	10011
224.5762	10020
224.59747	9981
224.61873	9914
224.64	9882
224.66127	9839
224.68254	9929
224.70381	9965
224.72507	9976
224.74634	9917
224.76761	9855
224.78888	9788
224.81013	9830
224.83141	9834
224.85268	9890
224.87393	9888
224.8952	9904
224.91647	9861
224.93773	9820
224.959	9894
224.98026	9843
225.00153	9808
225.02278	9806
225.04405	9766
225.06532	9786
225.08658	9708
225.10785	9623
225.1291	9664
225.15036	9658
225.17163	9538
225.19289	9541
225.21416	9570
225.23541	9592
225.25668	9523
225.27794	9536
225.29919	9476
225.32047	9441
225.34172	9476
225.36298	9547
225.38425	9561
225.4055	9494
225.42676	9445
225.44801	9416
225.46928	9424
225.49054	9357
225.5118	9383
225.53305	9387
225.55431	9393
225.57558	9227
225.59683	9228
225.61809	9279
225.63934	9249
225.6606	9195
225.68185	9200
225.70311	9169
225.72437	9176
225.74562	9085
225.76688	9068
225.78813	9043
225.80939	9036
225.83064	9030
225.8519	9043
225.87315	8979
225.89441	9005
225.91566	8927
225.93692	8899
225.95818	8924
225.97943	8846
226.00069	8919
226.02194	8899
226.04318	8945
226.06444	8916
226.08569	8893
226.10695	8811
226.1282	8878
226.14944	8862
226.1707	8937
226.19196	8797
226.21321	8770
226.23445	8737
226.25571	8717
226.27696	8688
226.2982	8716
226.31946	8762
226.34071	8749
226.36195	8676
226.38321	8727
226.40445	8789
226.4257	8745
226.44695	8688
226.4682	8712
226.48946	8680
226.5107	8661
226.53195	8657
226.55319	8655
226.57443	8692
226.59569	8648
226.61693	8613
226.63818	8557
226.65942	8511
226.68066	8547
226.70192	8550
226.72316	8598
226.74442	8545
226.76566	8483
226.7869	8507
226.80814	8511
226.82939	8539
226.85063	8519
226.87187	8523
226.89311	8527
226.91437	8440
226.93561	8425
226.95685	8329
226.97809	8259
226.99933	8316
227.02058	8280
227.04182	8285
227.06306	8314
227.0843	8341
227.10555	8405
227.12679	8322
227.14803	8257
227.16927	8246
227.19051	8193
227.21175	8134
227.23299	8123
227.25423	8132
227.27547	8057
227.29671	8029
227.31795	8098
227.33919	8086
227.36043	8140
227.38167	8039
227.40289	8101
227.42413	8051
227.44537	8032
227.46661	8034
227.48785	8108
227.50908	8174
227.53032	8062
227.55156	8087
227.5728	8172
227.59402	8150
227.61526	8130
227.63651	8164
227.65775	8128
227.67897	8131
227.70021	8067
227.72144	7981
227.74268	7963
227.76392	7956
227.78514	7931
227.80638	8005
227.82761	8004
227.84885	8080
227.87007	8015
227.89131	8009
227.91254	8019
227.93378	8033
227.955	8062
227.97624	8042
227.99747	8068
228.01871	8089
228.03993	8120
228.06117	8104
228.0824	8088
228.10362	8053
228.12486	8060
228.14609	8056
228.16731	8033
228.18855	8047
228.20978	8067
228.231	8100
228.25223	8019
228.27347	8102
228.29469	8065
228.31592	8074
228.33714	8074
228.35837	8076
228.37959	8108
228.40083	8094
228.42206	8102
228.44328	8090
228.46451	8160
228.48573	8143
228.50696	8174
228.52818	8196
228.54941	8157
228.57063	8160
228.59186	8123
228.61308	8118
228.63431	8145
228.65553	8152
228.67676	8183
228.69798	8183
228.71921	8178
228.74043	8209
228.76166	8222
228.78287	8290
228.80409	8220
228.82532	8206
228.84654	8238
228.86777	8235
228.88899	8234
228.9102	8247
228.93143	8295
228.95265	8213
228.97388	8171
228.99509	8177
229.01631	8335
229.03754	8282
229.05875	8300
229.07997	8287
229.1012	8295
229.12241	8295
229.14363	8331
229.16484	8385
229.18607	8404
229.20728	8385
229.2285	8405
229.24973	8441
229.27094	8416
229.29216	8424
229.31337	8365
229.33458	8359
229.3558	8385
229.37701	8348
229.39824	8350
229.41945	8321
229.44067	8351
229.46188	8336
229.48309	8299
229.50432	8304
229.52553	8224
229.54674	8201
229.56795	8193
229.58917	8191
229.61038	8171
229.63159	8091
229.6528	8106
229.67403	8101
229.69524	8127
229.71645	8007
229.73766	8017
229.75887	7977
229.78008	7925
229.8013	7847
229.82251	7827
229.84372	7799
229.86493	7711
229.88614	7675
229.90735	7618
229.92856	7515
229.94977	7509
229.97098	7500
229.99219	7422
230.0134	7329
230.03461	7280
230.05582	7325
230.07703	7245
230.09824	7145
230.11943	7144
230.14064	7110
230.16185	7186
230.18306	7063
230.20427	7030
230.22548	6999
230.24667	6913
230.26788	6863
230.28909	6871
230.3103	6842
230.3315	6838
230.35271	6819
230.37392	6760
230.39511	6744
230.41632	6689
230.43753	6675
230.45872	6663
230.47993	6662
230.50114	6655
230.52234	6647
230.54355	6645
230.56474	6598
230.58595	6581
230.60715	6600
230.62836	6581
230.64955	6596
230.67076	6512
230.69196	6491
230.71317	6545
230.73436	6559
230.75557	6574
230.77676	6532
230.79796	6556
230.81917	6523
230.84036	6458
230.86156	6447
230.88277	6484
230.90396	6425
230.92516	6436
230.94637	6385
230.96756	6351
230.98875	6318
231.00995	6322
231.03114	6340
231.05235	6367
231.07355	6319
231.09474	6265
231.11594	6288
231.13713	6272
231.15833	6244
231.17952	6228
231.20071	6253
231.22192	6256
231.24312	6244
231.26431	6211
231.28551	6171
231.3067	6223
231.3279	6227
231.34909	6152
231.37027	6123
231.39146	6200
231.41266	6180
231.43385	6183
231.45505	6140
231.47624	6153
231.49744	6112
231.51863	6118
231.53983	6095
231.561	6060
231.5822	6003
231.60339	6016
231.62459	6018
231.64577	6051
231.66696	5959
231.68816	6017
231.70935	5970
231.73053	5937
231.75172	5900
231.77292	5963
231.7941	5979
231.81529	5964
231.83647	5974
231.85767	5926
231.87886	5910
231.90004	5920
231.92123	5840
231.94241	5869
231.96361	5880
231.98479	5877
232.00598	5824
232.02716	5789
232.04834	5798
232.06953	5749
232.09071	5733
232.11191	5750
232.13309	5784
232.15427	5776
232.17546	5793
232.19664	5779
232.21782	5801
232.23901	5719
232.26019	5669
232.28137	5700
232.30257	5696
232.32375	5688
232.34492	5643
232.3661	5639
232.38728	5619
232.40848	5601
232.42966	5653
232.45084	5585
232.47202	5586
232.49319	5596
232.51437	5581
232.53555	5592
232.55673	5560
232.57791	5556
232.59909	5531
232.62027	5497
232.64145	5529
232.66263	5489
232.68381	5471
232.70499	5491
232.72617	5449
232.74734	5396
232.76852	5398
232.7897	5452
232.81088	5437
232.83205	5435
232.85323	5448
232.8744	5419
232.89558	5416
232.91676	5378
232.93793	5341
232.95911	5332
232.98029	5297
233.00146	5296
233.02263	5217
233.04381	5228
233.06499	5215
233.08615	5237
233.10733	5254
233.12851	5224
233.14967	5266
233.17085	5210
233.19202	5209
233.2132	5210
233.23438	5257
233.25554	5277
233.27672	5284
233.29788	5268
233.31906	5271
233.34023	5236
233.36139	5257
233.38257	5246
233.40373	5247
233.42491	5222
233.44608	5204
233.46724	5208
233.48842	5206
233.50958	5090
233.53075	5195
233.55193	5195
233.57309	5254
233.59425	5238
233.61542	5218
233.6366	5199
233.65776	5170
233.67892	5175
233.70009	5206
233.72127	5196
233.74243	5181
233.7636	5217
233.78476	5229
233.80592	5208
233.82709	5215
233.84825	5188
233.86942	5173
233.89058	5176
233.91174	5148
233.93291	5146
233.95407	5116
233.97523	5137
233.9964	5110
234.01756	5165
234.03873	5107
234.05989	5118
234.08105	5076
234.10222	5073
234.12338	5081
234.14453	5077
234.1657	5046
234.18686	5063
234.20802	5108
234.22919	5091
234.25034	5136
234.2715	5097
234.29266	5112
234.31383	5112
234.33498	5107
234.35614	5026
234.3773	5070
234.39845	5034
234.41962	5030
234.44078	4988
234.46193	5017
234.48309	4988
234.50424	4987
234.52541	4996
234.54655	4986
234.56772	5031
234.58887	4962
234.61003	4924
234.63118	4951
234.65234	4944
234.67349	4920
234.69466	4943
234.71581	4871
234.73695	4884
234.75812	4870
234.77927	4880
234.80043	4881
234.82158	4878
234.84273	4893
234.86388	4835
234.88504	4863
234.90619	4897
234.92734	4858
234.94849	4851
234.96965	4836
234.9908	4842
235.01195	4821
235.0331	4815
235.05424	4814
235.07539	4793
235.09656	4791
235.11771	4779
235.13885	4813
235.16	4782
235.18115	4814
235.2023	4759
235.22345	4750
235.2446	4758
235.26575	4789
235.2869	4727
235.30804	4692
235.32919	4720
235.35034	4696
235.37148	4707
235.39262	4651
235.41377	4678
235.43492	4704
235.45607	4646
235.47722	4660
235.49835	4640
235.5195	4622
235.54065	4631
235.5618	4618
235.58293	4669
235.60408	4625
235.62523	4594
235.64638	4591
235.66751	4600
235.68866	4617
235.70981	4567
235.73094	4587
235.75209	4561
235.77322	4482
