Date and Time:                Tue Jan 31 14:23:16.000 2023
Software Version:             4.31.30023.0
Temperature (C):              -40
Model:                        DU940P_BU2
Data Type:                    Counts
Acquisition Mode:             Single Scan
Trigger Mode:                 Internal
Exposure Time (secs):         80
Readout Mode:                 Full Vertical Binning
Horizontal binning:           1
Extended Dynamic Range:       off
Horizontally flipped:         false
Vertical Shift Speed (usecs): 14.51
Pixel Readout Rate (MHz):     3
Baseline Clamp:               ON
Clock Amplitude:              Normal
Output Amplifier:             High Capacity
Serial Number:                23634
Pre-Amplifier Gain:           1.000000
Spurious Noise Filter Mode:   No Filter
Photon counted:               false
Data Averaging Filter Mode:   No Filter
SR500i:
Serial Number:                
Wavelength (nm):              214
Grating Groove Density (l/mm):1199.47
Grating Blaze:                500
Output Flipper Port:          Direct
Accessory Output Port 1:      Off
Accessory Output Port 2:      Off
Accessory Output Port 3:      Off
Accessory Input Port:         On



192.0349	561
192.05646	551
192.078	533
192.09956	511
192.12112	528
192.14268	529
192.16425	507
192.18581	489
192.20735	480
192.22891	488
192.25047	495
192.27203	514
192.29358	505
192.31514	510
192.3367	498
192.35826	490
192.37981	518
192.40137	510
192.42293	524
192.44449	507
192.46603	492
192.48759	513
192.50916	528
192.5307	513
192.55226	501
192.57381	503
192.59537	509
192.61693	513
192.63847	520
192.66003	519
192.68159	499
192.70314	493
192.7247	502
192.74625	525
192.76781	536
192.78935	547
192.81091	530
192.83246	524
192.85402	512
192.87556	526
192.89713	511
192.91867	547
192.94023	537
192.96178	533
192.98334	556
193.00488	539
193.02643	514
193.04799	504
193.06953	528
193.09109	517
193.11264	540
193.13419	538
193.15575	542
193.17729	554
193.19884	545
193.2204	537
193.24194	523
193.26349	564
193.28505	534
193.30659	526
193.32814	550
193.34969	533
193.37125	566
193.39279	547
193.41434	537
193.43588	533
193.45744	526
193.47899	543
193.50053	556
193.52208	546
193.54362	544
193.56517	543
193.58673	570
193.60828	550
193.62982	556
193.65137	556
193.67291	538
193.69446	527
193.716	527
193.73755	544
193.75909	540
193.78064	542
193.80219	532
193.82375	545
193.84529	530
193.86684	535
193.88838	537
193.90993	558
193.93147	548
193.953	539
193.97455	531
193.99609	543
194.01764	550
194.03918	548
194.06073	539
194.08228	527
194.10382	555
194.12537	533
194.14691	559
194.16846	536
194.18999	544
194.21153	537
194.23308	541
194.25462	543
194.27617	541
194.29771	542
194.31924	546
194.34079	553
194.36234	581
194.38388	567
194.40541	550
194.42696	557
194.4485	542
194.47005	529
194.49158	522
194.51312	519
194.53467	506
194.5562	526
194.57774	513
194.59929	520
194.62082	508
194.64236	535
194.66391	508
194.68544	514
194.70699	531
194.72852	561
194.75006	530
194.77161	503
194.79314	527
194.81468	563
194.83621	545
194.85776	542
194.87929	510
194.90083	526
194.92236	545
194.94391	557
194.96544	550
194.98698	544
195.00851	513
195.03006	520
195.05159	537
195.07312	534
195.09467	551
195.1162	567
195.13774	561
195.15927	556
195.1808	524
195.20235	539
195.22388	554
195.24541	588
195.26695	566
195.28848	564
195.31001	567
195.33156	551
195.35309	560
195.37462	547
195.39616	558
195.41769	559
195.43922	582
195.46075	577
195.48228	604
195.50383	566
195.52536	557
195.54689	559
195.56842	559
195.58995	575
195.6115	574
195.63303	591
195.65456	574
195.67609	604
195.69762	582
195.71915	581
195.74068	584
195.76221	589
195.78374	573
195.80528	569
195.82681	575
195.84834	578
195.86987	588
195.8914	604
195.91293	581
195.93446	573
195.95599	605
195.97752	590
195.99905	605
196.02058	586
196.0421	589
196.06363	596
196.08516	602
196.10669	605
196.12822	602
196.14975	602
196.17128	614
196.19281	599
196.21434	592
196.23586	617
196.25739	593
196.27892	616
196.30045	621
196.32198	608
196.34351	601
196.36502	605
196.38655	610
196.40808	612
196.42961	616
196.45113	616
196.47266	620
196.49419	606
196.5157	611
196.53723	620
196.55876	633
196.58029	629
196.60181	623
196.62334	632
196.64485	626
196.66638	648
196.68791	631
196.70943	630
196.73096	620
196.75249	630
196.774	624
196.79553	656
196.81705	644
196.83858	642
196.86009	631
196.88162	635
196.90314	654
196.92467	635
196.94618	643
196.96771	626
196.98923	629
197.01076	645
197.03227	640
197.0538	676
197.07532	626
197.09683	658
197.11836	647
197.13988	612
197.16141	639
197.18292	663
197.20444	658
197.22597	628
197.24748	676
197.269	660
197.29053	683
197.31204	659
197.33356	668
197.35509	648
197.3766	664
197.39812	696
197.41963	679
197.44116	688
197.46268	668
197.48419	661
197.50571	679
197.52722	675
197.54875	677
197.57027	674
197.59178	698
197.6133	687
197.63481	685
197.65633	698
197.67784	688
197.69937	703
197.72089	742
197.7424	717
197.76392	710
197.78543	714
197.80695	698
197.82846	713
197.84998	727
197.87149	718
197.89301	717
197.91452	723
197.93604	713
197.95755	717
197.97906	715
198.00058	723
198.02209	714
198.04361	730
198.06512	723
198.08664	719
198.10814	723
198.12965	730
198.15117	722
198.17268	736
198.1942	745
198.21571	737
198.23723	735
198.25873	732
198.28024	753
198.30176	740
198.32327	756
198.34479	744
198.36629	751
198.3878	756
198.40932	753
198.43083	759
198.45233	766
198.47385	754
198.49536	761
198.51686	768
198.53838	784
198.55989	770
198.58139	775
198.60291	787
198.62442	796
198.64592	792
198.66743	783
198.68895	812
198.71045	805
198.73196	811
198.75346	796
198.77498	800
198.79648	790
198.81799	808
198.83949	808
198.86101	803
198.88251	818
198.90402	821
198.92552	810
198.94704	817
198.96854	804
198.99005	819
199.01155	825
199.03307	834
199.05457	827
199.07607	843
199.09758	856
199.11908	834
199.14059	851
199.16209	851
199.18359	885
199.20511	842
199.22661	864
199.24811	870
199.26961	888
199.29112	882
199.31262	908
199.33412	873
199.35564	871
199.37714	881
199.39864	885
199.42014	947
199.44164	901
199.46315	895
199.48465	898
199.50615	904
199.52765	910
199.54915	905
199.57065	899
199.59216	915
199.61366	901
199.63516	921
199.65666	925
199.67816	945
199.69966	940
199.72116	930
199.74266	936
199.76416	933
199.78566	949
199.80716	956
199.82866	976
199.85016	959
199.87166	966
199.89316	973
199.91466	973
199.93616	971
199.95766	985
199.97916	981
200.00066	1002
200.02216	1011
200.04366	1005
200.06516	1022
200.08664	1014
200.10814	1011
200.12964	1016
200.15114	1016
200.17264	1030
200.19414	1039
200.21562	1030
200.23712	1053
200.25862	1040
200.28012	1041
200.30161	1049
200.3231	1052
200.3446	1068
200.3661	1055
200.38759	1079
200.40909	1055
200.43059	1099
200.45207	1075
200.47357	1090
200.49507	1106
200.51656	1101
200.53806	1088
200.55956	1099
200.58104	1109
200.60254	1120
200.62402	1121
200.64552	1123
200.66702	1135
200.68851	1138
200.71001	1245
200.73149	1155
200.75299	1163
200.77448	1184
200.79597	1173
200.81746	1168
200.83896	1164
200.86044	1189
200.88194	1188
200.90343	1198
200.92491	1203
200.94641	1232
200.9679	1210
200.9894	1231
201.01088	1207
201.03236	1220
201.05386	1249
201.07535	1237
201.09683	1229
201.11833	1248
201.13982	1290
201.1613	1293
201.1828	1288
201.20428	1306
201.22577	1298
201.24725	1296
201.26875	1308
201.29024	1299
201.31172	1351
201.33321	1346
201.35469	1343
201.37619	1338
201.39767	1366
201.41916	1364
201.44064	1399
201.46213	1384
201.48361	1406
201.50511	1415
201.5266	1403
201.54808	1427
201.56956	1434
201.59105	1449
201.61253	1436
201.63402	1460
201.6555	1488
201.67699	1465
201.69847	1481
201.71996	1496
201.74144	1508
201.76292	1531
201.78441	1502
201.80589	1537
201.82738	1544
201.84886	1553
201.87035	1559
201.89183	1588
201.9133	1587
201.93478	1589
201.95627	1583
201.97775	1600
201.99924	1594
202.02072	1600
202.04221	1642
202.06367	1605
202.08516	1636
202.10664	1629
202.12813	1665
202.14961	1662
202.17108	1693
202.19257	1705
202.21405	1711
202.23553	1711
202.257	1719
202.27849	1720
202.29997	1720
202.32144	1746
202.34293	1758
202.36441	1742
202.38588	1791
202.40736	1787
202.42883	1790
202.45032	1834
202.4718	1792
202.49327	1805
202.51476	1989
202.53622	1832
202.55771	1848
202.57918	1865
202.60066	1915
202.62213	1894
202.64362	1895
202.66508	1941
202.68657	1940
202.70804	1919
202.72952	1985
202.75099	1966
202.77248	2002
202.79395	1981
202.81543	2001
202.8369	2025
202.85837	2017
202.87985	2034
202.90132	2048
202.92279	2090
202.94427	2106
202.96574	2120
202.98721	2124
203.0087	2141
203.03017	2155
203.05164	2187
203.0731	2232
203.09459	2255
203.11606	2264
203.13753	2253
203.159	2270
203.18048	2276
203.20195	2288
203.22342	2290
203.24489	2327
203.26636	2318
203.28783	2342
203.30931	2363
203.33078	2367
203.35225	2376
203.37372	2405
203.39519	2419
203.41666	2420
203.43813	2430
203.45959	2422
203.48106	2475
203.50253	2494
203.524	2515
203.54547	2530
203.56694	2525
203.58841	2552
203.60988	2619
203.63135	2609
203.65282	2606
203.67429	2620
203.69576	2662
203.71722	2648
203.73869	2672
203.76016	2683
203.78163	2714
203.80309	2713
203.82455	2725
203.84602	2721
203.86749	2776
203.88896	2810
203.91043	2816
203.93188	2831
203.95335	2847
203.97482	2840
203.99629	2867
204.01775	2898
204.03922	2964
204.06068	2964
204.08215	2962
204.10361	3002
204.12508	3011
204.14655	3020
204.168	3028
204.18947	3081
204.21094	3078
204.23239	3115
204.25386	3136
204.27531	3148
204.29678	3157
204.31825	3186
204.33971	3221
204.36118	3209
204.38263	3292
204.4041	3295
204.42555	3345
204.44702	3355
204.46848	3388
204.48994	3413
204.5114	3446
204.53287	3467
204.55432	3499
204.57579	3539
204.59724	3532
204.6187	3600
204.64017	3617
204.66162	3649
204.68309	3646
204.70454	3706
204.726	3727
204.74747	3766
204.76892	3792
204.79037	3822
204.81184	3859
204.8333	3874
204.85475	3870
204.87621	3907
204.89767	3955
204.91913	3983
204.94058	3983
204.96204	4047
204.98351	4077
205.00496	4158
205.02641	4176
205.04787	4205
205.06932	4278
205.09077	4218
205.11224	4292
205.1337	4350
205.15515	4417
205.17661	4435
205.19806	4423
205.21951	4478
205.24097	4561
205.26242	4561
205.28387	4608
205.30533	4622
205.32678	4653
205.34824	4713
205.36969	4735
205.39114	4735
205.4126	4722
205.43405	4773
205.45551	4859
205.47696	4901
205.49841	4897
205.51987	4947
205.54132	4981
205.56277	5061
205.58421	5062
205.60567	5126
205.62712	5156
205.64857	5238
205.67003	5267
205.69148	5308
205.71292	5339
205.73438	5395
205.75583	5454
205.77728	5486
205.79872	5534
205.82018	5639
205.84163	5668
205.86308	5797
205.88452	5815
205.90598	5811
205.92743	5874
205.94887	5948
205.97032	5988
205.99178	6054
206.01321	6081
206.03467	6154
206.05611	6174
206.07756	6217
206.09901	6244
206.12045	6311
206.14191	6337
206.16335	6403
206.1848	6464
206.20624	6525
206.22769	6574
206.24913	6584
206.27058	6661
206.29202	6698
206.31348	6772
206.33492	6727
206.35637	6830
206.37781	6861
206.39925	6886
206.4207	6985
206.44214	7041
206.46359	7068
206.48503	7169
206.50647	7226
206.52792	7327
206.54936	7379
206.5708	7432
206.59224	7491
206.61369	7505
206.63513	7557
206.65657	7580
206.67802	7631
206.69946	7730
206.7209	7725
206.74234	7806
206.76378	7816
206.78523	7909
206.80667	7937
206.82811	7981
206.84955	8016
206.87099	8083
206.89243	8106
206.91386	8225
206.93532	8303
206.95676	8424
206.9782	8492
206.99963	8493
207.02107	8565
207.04251	8675
207.06395	8721
207.08539	8770
207.10683	8843
207.12827	8846
207.1497	8892
207.17114	9012
207.19258	9034
207.21402	9145
207.23546	9246
207.2569	9281
207.27832	9398
207.29976	9548
207.3212	9625
207.34264	9574
207.36407	9648
207.38551	9717
207.40695	9827
207.42838	9905
207.44981	10043
207.47125	10217
207.49269	10284
207.51413	10322
207.53555	10311
207.55699	10410
207.57843	10498
207.59985	10578
207.62129	10688
207.64273	10803
207.66417	10792
207.68559	10836
207.70703	10989
207.72845	11060
207.74989	11075
207.77133	11103
207.79276	11152
207.81419	11232
207.83562	11320
207.85706	11444
207.87849	11498
207.89992	11627
207.92136	11655
207.94278	11766
207.96422	11905
207.98564	11983
208.00708	12105
208.0285	12187
208.04994	12257
208.07137	12355
208.09279	12407
208.11423	12360
208.13565	12491
208.15709	12600
208.17851	12601
208.19994	12691
208.22137	12859
208.2428	12955
208.26422	12996
208.28566	13047
208.30708	13159
208.32851	13268
208.34995	13356
208.37137	13456
208.39279	13558
208.41422	13838
208.43565	13821
208.45708	13903
208.4785	14053
208.49992	14089
208.52135	14133
208.54279	14205
208.56421	14274
208.58563	14397
208.60706	14474
208.62848	14596
208.6499	14666
208.67133	14701
208.69275	14835
208.71417	14943
208.7356	15178
208.75703	15351
208.77846	15399
208.79988	15508
208.8213	15499
208.84273	15584
208.86415	15692
208.88556	15874
208.90698	16095
208.92841	16319
208.94983	16374
208.97125	16417
208.99268	16598
209.0141	16705
209.03552	16780
209.05695	16961
209.07837	17056
209.09978	17052
209.1212	17104
209.14262	17246
209.16405	17345
209.18547	17502
209.20688	17673
209.2283	17607
209.24973	17698
209.27115	17833
209.29256	17907
209.31398	17989
209.3354	18191
209.35683	18352
209.37823	18449
209.39966	18647
209.42108	18831
209.44249	19006
209.46391	19054
209.48532	19081
209.50674	19165
209.52817	19216
209.54958	19254
209.571	19436
209.59241	19634
209.61383	19656
209.63524	19697
209.65666	19805
209.67807	20037
209.69949	20289
209.7209	20428
209.74232	20514
209.76373	20686
209.78516	20671
209.80656	20825
209.82797	20884
209.8494	20942
209.8708	21077
209.89223	21155
209.91364	21384
209.93504	21544
209.95647	21700
209.97787	21684
209.99928	21657
210.02071	21860
210.04211	21924
210.06352	22158
210.08493	22201
210.10635	22379
210.12776	22467
210.14917	22540
210.17058	22586
210.19199	22837
210.21341	22942
210.23482	23182
210.25623	23252
210.27763	23318
210.29904	23476
210.32045	23520
210.34186	23586
210.36327	23696
210.38469	23828
210.4061	23999
210.42751	24248
210.44891	24529
210.47032	24743
210.49173	24946
210.51314	25012
210.53455	25175
210.55595	25356
210.57736	25526
210.59877	25650
210.62018	26015
210.64157	26162
210.66298	26179
210.68439	26164
210.7058	26215
210.7272	26372
210.74861	26428
210.77002	26718
210.79143	26719
210.81282	26851
210.83423	27049
210.85564	27128
210.87704	27336
210.89844	27415
210.91985	27581
210.94125	27682
210.96266	27848
210.98405	28072
211.00546	27991
211.02687	27996
211.04826	28064
211.06967	28363
211.09108	28372
211.11247	28644
211.13388	28856
211.15529	28918
211.17668	28962
211.19809	28826
211.21948	28722
211.24089	28683
211.2623	28818
211.28369	29070
211.3051	29102
211.32649	29357
211.3479	29265
211.36929	29416
211.3907	29550
211.41209	29680
211.43349	29772
211.4549	29900
211.47629	30022
211.4977	30226
211.51909	30183
211.54048	30316
211.56189	30416
211.58328	30563
211.60469	30501
211.62608	30642
211.64748	31071
211.66887	31290
211.69028	31377
211.71167	31405
211.73306	31367
211.75447	31350
211.77586	31691
211.79726	31758
211.81865	31948
211.84004	32285
211.86145	32323
211.88284	32294
211.90424	32352
211.92563	32462
211.94702	32584
211.96841	32810
211.98981	32973
212.01122	33039
212.03261	32992
212.054	32880
212.07539	33112
212.09679	33303
212.11818	33345
212.13957	33394
212.16096	33243
212.18236	33482
212.20375	33477
212.22514	33661
212.24654	33780
212.26793	33795
212.28932	33874
212.3107	34085
212.33209	34317
212.35349	34435
212.37488	34552
212.39627	34647
212.41766	34785
212.43906	34677
212.46043	34449
212.48183	34455
212.50322	34486
212.52461	34389
212.54601	34264
212.56738	34339
212.58878	34497
212.61017	34384
212.63156	34418
212.65294	34389
212.67433	34292
212.69572	34180
212.7171	34134
212.73849	34413
212.75989	34840
212.78127	34941
212.80266	34826
212.82404	34851
212.84543	34859
212.86681	34811
212.8882	34904
212.90959	35022
212.93097	35139
212.95236	35173
212.97374	35295
212.99513	35295
213.01651	35270
213.0379	35268
213.05928	35299
213.08066	35510
213.10205	35959
213.12343	36294
213.14482	36279
213.1662	36292
213.18758	36015
213.20897	35899
213.23035	35789
213.25172	36045
213.27312	36285
213.29449	36617
213.31587	36595
213.33727	36622
213.35864	36479
213.38002	36527
213.4014	36348
213.42279	36356
213.44417	36560
213.46555	36398
213.48692	36080
213.5083	35781
213.52969	35774
213.55107	35652
213.57245	35605
213.59383	35723
213.6152	35713
213.63658	35705
213.65796	35783
213.67934	35723
213.70071	35941
213.72209	35847
213.74347	36023
213.76485	36193
213.78622	36402
213.8076	36403
213.82898	36504
213.85036	36515
213.87173	36666
213.89311	36547
213.91449	36143
213.93587	36012
213.95724	36055
213.97862	35885
214	35521
214.02138	35714
214.04274	36313
214.06412	36164
214.08549	36355
214.10687	36308
214.12825	36219
214.14961	36270
214.17099	36135
214.19237	36150
214.21375	36249
214.23511	36191
214.25648	36399
214.27786	36179
214.29922	36216
214.3206	36080
214.34198	35937
214.36334	35862
214.38472	35643
214.4061	35654
214.42746	35633
214.44884	35698
214.4702	35551
214.49158	35530
214.51294	35533
214.53432	35654
214.55568	35711
214.57706	35572
214.59842	35618
214.6198	35347
214.64116	35327
214.66254	35457
214.6839	35187
214.70528	35200
214.72664	35350
214.74802	35299
214.76938	35211
214.79074	35262
214.81212	35095
214.83348	35162
214.85484	35110
214.87622	34923
214.89758	35026
214.91895	34851
214.94031	34713
214.96169	34626
214.98305	34596
215.00441	34532
215.02577	34305
215.04715	34212
215.06851	34219
215.08987	34226
215.11124	34152
215.1326	34048
215.15396	33903
215.17534	33956
215.1967	33900
215.21806	33928
215.23943	33813
215.26079	33718
215.28215	33665
215.30351	33591
215.32487	33473
215.34624	33302
215.3676	33234
215.38896	33189
215.41032	33214
215.43169	33040
215.45305	32782
215.47441	32842
215.49577	32773
215.51714	32570
215.5385	32405
215.55986	32313
215.58121	32181
215.60257	31914
215.62393	31457
215.64529	31180
215.66666	31179
215.68802	31020
215.70937	30935
215.73073	30969
215.75209	31024
215.77345	30714
215.7948	30659
215.81616	30559
215.83752	30512
215.85889	30270
215.88023	30403
215.9016	30411
215.92296	30457
215.94431	30332
215.96567	30326
215.98701	30249
216.00838	30310
216.02974	30373
216.05109	30308
216.07245	30176
216.0938	30086
216.11516	29794
216.13651	29551
216.15787	29499
216.17921	29518
216.20058	29452
216.22192	29432
216.24329	29499
216.26463	29585
216.286	29655
216.30734	29435
216.32869	29246
216.35005	29280
216.3714	29232
216.39275	29226
216.41411	29285
216.43546	29260
216.4568	29103
216.47816	28993
216.49951	28701
216.52086	28597
216.54222	28342
216.56357	28378
216.58492	28398
216.60626	28438
216.62761	28325
216.64897	28226
216.67032	28223
216.69167	28066
216.71301	28023
216.73436	27907
216.75571	27962
216.77705	27909
216.79842	27721
216.81976	27421
216.84111	27248
216.86246	27228
216.8838	27107
216.90515	27066
216.9265	27320
216.94785	27257
216.96919	27205
216.99054	26988
217.01189	26764
217.03323	26538
217.05458	26510
217.07591	26397
217.09726	26361
217.11861	26323
217.13995	26285
217.1613	26071
217.18265	26128
217.20399	26113
217.22533	26055
217.24667	25880
217.26802	25850
217.28937	25719
217.31071	25591
217.33205	25523
217.35339	25379
217.37474	25274
217.39609	25224
217.41742	25021
217.43877	25110
217.46011	25198
217.48145	25148
217.50279	25030
217.52412	24741
217.54547	24687
217.56682	24592
217.58815	24552
217.6095	24614
217.63083	24652
217.65218	24679
217.67351	24472
217.69485	24417
217.71619	24223
217.73753	24155
217.75887	24045
217.78021	24105
217.80154	24135
217.82289	23941
217.84422	23785
217.86557	23644
217.8869	23522
217.90823	23436
217.92958	23260
217.95091	23078
217.97224	22996
217.99359	22954
218.01492	22819
218.03625	22750
218.05759	22691
218.07893	22637
218.10027	22537
218.1216	22582
218.14293	22577
218.16428	22350
218.18561	22236
218.20694	22318
218.22827	22183
218.2496	21998
218.27094	21908
218.29228	21760
218.31361	21581
218.33495	21405
218.35628	21354
218.37761	21379
218.39894	21298
218.42027	21241
218.4416	21132
218.46294	21055
218.48427	20975
218.5056	20812
218.52693	20793
218.54826	20815
218.5696	20911
218.59093	20940
218.61226	20772
218.63359	20617
218.65492	20619
218.67624	20447
218.69757	20431
218.7189	20400
218.74023	20295
218.76157	20246
218.7829	20136
218.80421	20053
218.82555	19994
218.84688	19928
218.86821	19825
218.88953	19973
218.91086	20013
218.93219	20065
218.95351	19823
218.97484	19857
218.99617	19730
219.01749	19691
219.03882	19768
219.06015	19822
219.08147	19894
219.1028	19880
219.12411	19728
219.14545	19760
219.16678	19806
219.1881	19628
219.20943	19529
219.23074	19503
219.25208	19442
219.27339	19291
219.29472	19162
219.31604	19109
219.33736	19057
219.35869	18979
219.38	18839
219.40134	18739
219.42265	18739
219.44397	18709
219.4653	18667
219.48662	18605
219.50793	18580
219.52927	18533
219.55058	18486
219.5719	18491
219.59323	18524
219.61455	18393
219.63586	18407
219.65718	18221
219.6785	18204
219.69983	18112
219.72115	17953
219.74246	18013
219.76378	17903
219.7851	17691
219.80641	17666
219.82773	17644
219.84906	17640
219.87038	17644
219.89169	17573
219.91301	17643
219.93433	17546
219.95564	17467
219.97696	17317
219.99828	17291
220.01959	17150
220.04091	17084
220.06223	17169
220.08354	17178
220.10486	17191
220.12617	17075
220.14748	16944
220.16879	16819
220.19011	16844
220.21143	16778
220.23274	16740
220.25406	16751
220.27536	16743
220.29668	16732
220.31799	16567
220.33931	16672
220.36063	16599
220.38193	16571
220.40324	16453
220.42456	16391
220.44586	16421
220.46718	16337
220.48849	16263
220.5098	16280
220.53111	16222
220.55243	16108
220.57373	16135
220.59505	16107
220.61636	16150
220.63766	16119
220.65898	16030
220.68028	15994
220.7016	15972
220.7229	15895
220.74422	15834
220.76552	15845
220.78683	15796
220.80814	15740
220.82945	15573
220.85075	15500
220.87206	15447
220.89337	15403
220.91467	15431
220.93599	15428
220.95729	15410
220.97859	15298
220.99991	15216
221.02121	15194
221.04251	15188
221.06381	15143
221.08513	15103
221.10643	15101
221.12773	15081
221.14903	14945
221.17035	14793
221.19165	14790
221.21295	14823
221.23425	14763
221.25555	14678
221.27686	14668
221.29817	14661
221.31947	14630
221.34077	14527
221.36208	14436
221.38338	14301
221.40468	14281
221.42598	14022
221.44728	13919
221.46858	13873
221.48988	13818
221.51118	13736
221.53249	13830
221.55379	13878
221.57509	13670
221.59639	13587
221.61769	13577
221.63899	13438
221.66028	13430
221.68158	13546
221.70288	13572
221.72418	13520
221.74548	13470
221.76678	13417
221.78807	13415
221.80937	13436
221.83067	13422
221.85197	13410
221.87326	13375
221.89456	13272
221.91586	13204
221.93716	13105
221.95845	12975
221.97975	12952
222.00105	12905
222.02234	12944
222.04364	12984
222.06493	12972
222.08623	12999
222.10753	12892
222.12881	12843
222.15012	12833
222.1714	12878
222.1927	12834
222.21399	12886
222.23529	12842
222.25658	12814
222.27788	12772
222.29916	12685
222.32045	12625
222.34175	12559
222.36304	12550
222.38434	12554
222.40562	12575
222.42691	12477
222.44821	12398
222.4695	12413
222.49078	12356
222.51208	12347
222.53337	12326
222.55466	12253
222.57594	12217
222.59724	12158
222.61853	12082
222.63982	12075
222.6611	12056
222.68239	12032
222.70369	11992
222.72498	12142
222.74626	12083
222.76755	11955
222.78883	11830
222.81012	11779
222.83141	11688
222.85269	11707
222.87398	11617
222.89526	11621
222.91656	11594
222.93785	11507
222.95914	11449
222.98041	11478
223.00169	11436
223.02298	11428
223.04427	11400
223.06555	11240
223.08684	11226
223.10812	11177
223.12941	11144
223.1507	11097
223.17198	10967
223.19325	10948
223.21454	10876
223.23582	10976
223.25711	11019
223.2784	11049
223.29967	11000
223.32095	10944
223.34224	10822
223.36353	10825
223.3848	10772
223.40608	10839
223.42737	10899
223.44864	10934
223.46992	10927
223.4912	10972
223.51248	10907
223.53377	10872
223.55504	10855
223.57632	10853
223.5976	10831
223.61888	10829
223.64015	10718
223.66144	10753
223.68271	10671
223.70399	10703
223.72527	10656
223.74655	10560
223.76782	10670
223.78911	10650
223.81038	10460
223.83165	10452
223.85294	10455
223.87421	10419
223.89549	10492
223.91676	10474
223.93803	10502
223.9593	10387
223.98059	10419
224.00186	10387
224.02313	10409
224.04442	10363
224.06569	10288
224.08696	10301
224.10823	10233
224.1295	10241
224.15077	10134
224.17206	10111
224.19333	10145
224.2146	10123
224.23587	10060
224.25714	10064
224.27841	10036
224.29968	9943
224.32095	9972
224.34222	9954
224.36349	9988
224.38477	10034
224.40604	9939
224.42731	9936
224.44858	9897
224.46985	9820
224.49112	9791
224.51239	9857
224.53366	9781
224.55493	9807
224.5762	9822
224.59747	9785
224.61873	9720
224.64	9672
224.66127	9664
224.68254	9727
224.70381	9788
224.72507	9784
224.74634	9699
224.76761	9688
224.78888	9641
224.81013	9652
224.83141	9616
224.85268	9693
224.87393	9723
224.8952	9680
224.91647	9644
224.93773	9660
224.959	9694
224.98026	9598
225.00153	9611
225.02278	9645
225.04405	9578
225.06532	9529
225.08658	9516
225.10785	9529
225.1291	9482
225.15036	9416
225.17163	9372
225.19289	9340
225.21416	9316
225.23541	9361
225.25668	9354
225.27794	9361
225.29919	9299
225.32047	9293
225.34172	9300
225.36298	9369
225.38425	9294
225.4055	9354
225.42676	9343
225.44801	9230
225.46928	9191
225.49054	9166
225.5118	9171
225.53305	9222
225.55431	9140
225.57558	9061
225.59683	9051
225.61809	9066
225.63934	9111
225.6606	9048
225.68185	8995
225.70311	8964
225.72437	9028
225.74562	8865
225.76688	8840
225.78813	8891
225.80939	8856
225.83064	8880
225.8519	8847
225.87315	8867
225.89441	8781
225.91566	8739
225.93692	8754
225.95818	8711
225.97943	8679
226.00069	8754
226.02194	8773
226.04318	8748
226.06444	8765
226.08569	8704
226.10695	8685
226.1282	8727
226.14944	8724
226.1707	8713
226.19196	8637
226.21321	8556
226.23445	8526
226.25571	8537
226.27696	8516
226.2982	8521
226.31946	8510
226.34071	8546
226.36195	8523
226.38321	8539
226.40445	8556
226.4257	8543
226.44695	8546
226.4682	8528
226.48946	8512
226.5107	8476
226.53195	8468
226.55319	8481
226.57443	8505
226.59569	8460
226.61693	8359
226.63818	8377
226.65942	8384
226.68066	8325
226.70192	8345
226.72316	8381
226.74442	8334
226.76566	8296
226.7869	8334
226.80814	8349
226.82939	8309
226.85063	8292
226.87187	8325
226.89311	8329
226.91437	8250
226.93561	8214
226.95685	8140
226.97809	8097
226.99933	8087
227.02058	8117
227.04182	8128
227.06306	8176
227.0843	8161
227.10555	8179
227.12679	8112
227.14803	8096
227.16927	8072
227.19051	8072
227.21175	7996
227.23299	7928
227.25423	7930
227.27547	7905
227.29671	7876
227.31795	7932
227.33919	7885
227.36043	7953
227.38167	7955
227.40289	7964
227.42413	7860
227.44537	7894
227.46661	7854
227.48785	7918
227.50908	7928
227.53032	7963
227.55156	7857
227.5728	7943
227.59402	7928
227.61526	7913
227.63651	7944
227.65775	7946
227.67897	7901
227.70021	7852
227.72144	7773
227.74268	7783
227.76392	7782
227.78514	7777
227.80638	7772
227.82761	7849
227.84885	7862
227.87007	7859
227.89131	7810
227.91254	7823
227.93378	7832
227.955	7843
227.97624	7884
227.99747	7896
228.01871	7902
228.03993	7861
228.06117	7892
228.0824	7893
228.10362	7839
228.12486	7810
228.14609	7837
228.16731	7879
228.18855	7817
228.20978	7860
228.231	7830
228.25223	7906
228.27347	7859
228.29469	7878
228.31592	7858
228.33714	7911
228.35837	7900
228.37959	7909
228.40083	7900
228.42206	7854
228.44328	7893
228.46451	7994
228.48573	7986
228.50696	7959
228.52818	7946
228.54941	8009
228.57063	7960
228.59186	7933
228.61308	7918
228.63431	7957
228.65553	7958
228.67676	7998
228.69798	7978
228.71921	7977
228.74043	7988
228.76166	7991
228.78287	8064
228.80409	8036
228.82532	7970
228.84654	7991
228.86777	8020
228.88899	8065
228.9102	7988
228.93143	8069
228.95265	8011
228.97388	7921
228.99509	7969
229.01631	8031
229.03754	8115
229.05875	8111
229.07997	8086
229.1012	8130
229.12241	8048
229.14363	8126
229.16484	8129
229.18607	8217
229.20728	8188
229.2285	8236
229.24973	8204
229.27094	8222
229.29216	8188
229.31337	8177
229.33458	8197
229.3558	8223
229.37701	8170
229.39824	8132
229.41945	8082
229.44067	8105
229.46188	8077
229.48309	8053
229.50432	8063
229.52553	8036
229.54674	7989
229.56795	7953
229.58917	7985
229.61038	7950
229.63159	7946
229.6528	7852
229.67403	7899
229.69524	7919
229.71645	7809
229.73766	7758
229.75887	7724
229.78008	7704
229.8013	7625
229.82251	7587
229.84372	7595
229.86493	7515
229.88614	7456
229.90735	7405
229.92856	7331
229.94977	7329
229.97098	7280
229.99219	7206
230.0134	7187
230.03461	7326
230.05582	7409
230.07703	7062
230.09824	6915
230.11943	6944
230.14064	6908
230.16185	6916
230.18306	6892
230.20427	6848
230.22548	6793
230.24667	6766
230.26788	6707
230.28909	6724
230.3103	6695
230.3315	6666
230.35271	6602
230.37392	6582
230.39511	6571
230.41632	6508
230.43753	6479
230.45872	6481
230.47993	6516
230.50114	6482
230.52234	6504
230.54355	6473
230.56474	6401
230.58595	6356
230.60715	6365
230.62836	6362
230.64955	6402
230.67076	6376
230.69196	6352
230.71317	6396
230.73436	6405
230.75557	6403
230.77676	6336
230.79796	6352
230.81917	6342
230.84036	6264
230.86156	6259
230.88277	6291
230.90396	6273
230.92516	6278
230.94637	6170
230.96756	6161
230.98875	6143
231.00995	6144
231.03114	6148
231.05235	6157
231.07355	6118
231.09474	6058
231.11594	6099
231.13713	6143
231.15833	6090
231.17952	6049
231.20071	6072
231.22192	6076
231.24312	6044
231.26431	6029
231.28551	6008
231.3067	6048
231.3279	6041
231.34909	6030
231.37027	5994
231.39146	6029
231.41266	5998
231.43385	5960
231.45505	5978
231.47624	5972
231.49744	5935
231.51863	5937
231.53983	5909
231.561	5882
231.5822	5824
231.60339	5821
231.62459	5879
231.64577	5842
231.66696	5819
231.68816	5809
231.70935	5816
231.73053	5767
231.75172	5703
231.77292	5799
231.7941	5798
231.81529	5812
231.83647	5761
231.85767	5784
231.87886	5887
231.90004	5761
231.92123	5709
231.94241	5680
231.96361	5759
231.98479	5691
232.00598	5644
232.02716	5631
232.04834	5605
232.06953	5624
232.09071	5531
232.11191	5562
232.13309	5587
232.15427	5604
232.17546	5598
232.19664	5578
232.21782	5619
232.23901	5512
232.26019	5531
232.28137	5488
232.30257	5527
232.32375	5511
232.34492	5495
232.3661	5445
232.38728	5403
232.40848	5484
232.42966	5457
232.45084	5437
232.47202	5432
232.49319	5421
232.51437	5416
232.53555	5410
232.55673	5375
232.57791	5384
232.59909	5364
232.62027	5312
232.64145	5358
232.66263	5329
232.68381	5285
232.70499	5326
232.72617	5242
232.74734	5242
232.76852	5240
232.7897	5258
232.81088	5248
232.83205	5292
232.85323	5239
232.8744	5265
232.89558	5228
232.91676	5211
232.93793	5146
232.95911	5130
232.98029	5102
233.00146	5097
233.02263	5050
233.04381	5038
233.06499	5037
233.08615	5042
233.10733	5092
233.12851	5066
233.14967	5061
233.17085	5030
233.19202	5035
233.2132	5053
233.23438	5069
233.25554	5135
233.27672	5133
233.29788	5087
233.31906	5119
233.34023	5085
233.36139	5090
233.38257	5047
233.40373	5063
233.42491	5018
233.44608	5016
233.46724	5033
233.48842	5021
233.50958	4910
233.53075	5020
233.55193	5015
233.57309	5088
233.59425	5034
233.61542	5033
233.6366	4995
233.65776	5009
233.67892	4990
233.70009	5022
233.72127	5021
233.74243	4967
233.7636	5053
233.78476	5034
233.80592	5006
233.82709	5004
233.84825	5010
233.86942	5034
233.89058	5001
233.91174	5006
233.93291	4981
233.95407	4945
233.97523	4969
233.9964	4925
234.01756	4962
234.03873	4960
234.05989	4918
234.08105	4916
234.10222	4878
234.12338	4947
234.14453	4893
234.1657	4889
234.18686	4890
234.20802	4933
234.22919	4901
234.25034	4943
234.2715	4914
234.29266	4921
234.31383	4930
234.33498	4911
234.35614	4920
234.3773	4898
234.39845	4872
234.41962	4846
234.44078	4846
234.46193	4841
234.48309	4800
234.50424	4829
234.52541	4831
234.54655	4839
234.56772	4841
234.58887	4801
234.61003	4785
234.63118	4792
234.65234	4791
234.67349	4776
234.69466	4748
234.71581	4741
234.73695	4731
234.75812	4696
234.77927	4696
234.80043	4725
234.82158	4698
234.84273	4675
234.86388	4689
234.88504	4698
234.90619	4712
234.92734	4707
234.94849	4664
234.96965	4690
234.9908	4653
235.01195	4677
235.0331	4627
235.05424	4639
235.07539	4652
235.09656	4644
235.11771	4624
235.13885	4616
235.16	4624
235.18115	4661
235.2023	4602
235.22345	4617
235.2446	4600
235.26575	4597
235.2869	4570
235.30804	4565
235.32919	4582
235.35034	4549
235.37148	4537
235.39262	4548
235.41377	4544
235.43492	4544
235.45607	4503
235.47722	4534
235.49835	4479
235.5195	4487
235.54065	4487
235.5618	4439
235.58293	4509
235.60408	4481
235.62523	4461
235.64638	4463
235.66751	4470
235.68866	4453
235.70981	4461
235.73094	4416
235.75209	4439
235.77322	4365
