Date and Time:                Tue Apr 26 17:27:54.000 2022
Software Version:             4.31.30023.0
Temperature (C):              -40
Model:                        DU940P_BU2
Data Type:                    Counts
Acquisition Mode:             Single Scan
Trigger Mode:                 Internal
Exposure Time (secs):         125
Readout Mode:                 Full Vertical Binning
Horizontal binning:           1
Extended Dynamic Range:       off
Horizontally flipped:         false
Vertical Shift Speed (usecs): 14.51
Pixel Readout Rate (MHz):     3
Baseline Clamp:               ON
Clock Amplitude:              Normal
Output Amplifier:             High Capacity
Serial Number:                23634
Pre-Amplifier Gain:           1.000000
Spurious Noise Filter Mode:   No Filter
Photon counted:               false
Data Averaging Filter Mode:   No Filter
SR500i:
Serial Number:                
Wavelength (nm):              280
Grating Groove Density (l/mm):1199.47
Grating Blaze:                500
Output Flipper Port:          Direct
Accessory Output Port 1:      Off
Accessory Output Port 2:      Off
Accessory Output Port 3:      Off
Accessory Input Port:         On



258.35431	1919
258.37558	1857
258.39685	1866
258.41809	1899
258.43936	1919
258.4606	1912
258.48187	1932
258.50311	1944
258.52438	1940
258.54565	1957
258.56689	1989
258.58817	1976
258.60941	1972
258.63068	1981
258.65192	1960
258.67319	1950
258.69443	1961
258.7157	1933
258.73694	1990
258.75821	1926
258.77945	1876
258.80072	1851
258.82196	1860
258.84323	1826
258.86447	1782
258.88574	1775
258.90698	1719
258.92825	1686
258.94949	1664
258.97076	1663
258.992	1625
259.01324	1614
259.03452	1610
259.05576	1591
259.07703	1572
259.09827	1559
259.11954	1506
259.14078	1524
259.16202	1505
259.18329	1484
259.20453	1450
259.22577	1447
259.24704	1417
259.26828	1454
259.28955	1437
259.31079	1412
259.33203	1398
259.3533	1385
259.37454	1409
259.39578	1383
259.41705	1386
259.43829	1397
259.45953	1398
259.4808	1392
259.50204	1386
259.52328	1407
259.54453	1397
259.5658	1422
259.58704	1404
259.60828	1412
259.62952	1437
259.65079	1410
259.67203	1474
259.69327	1439
259.71451	1469
259.73578	1460
259.75702	1496
259.77826	1518
259.7995	1548
259.82077	1542
259.84201	1559
259.86325	1580
259.88449	1637
259.90573	1628
259.92697	1672
259.94824	1690
259.96948	1722
259.99072	1712
260.01196	1756
260.0332	1790
260.05444	1781
260.07571	1845
260.09695	1850
260.11819	1871
260.13943	1896
260.16068	1936
260.18192	1963
260.20316	2010
260.2244	2012
260.24564	2033
260.26688	2059
260.28815	2057
260.30939	2072
260.33063	2112
260.35187	2118
260.37311	2120
260.39435	2162
260.41559	2139
260.43683	2162
260.45807	2126
260.47931	2121
260.50055	2111
260.52179	2126
260.54303	2114
260.56427	2066
260.58551	2078
260.60675	2051
260.62799	2065
260.64923	2066
260.67047	2086
260.69171	2041
260.71295	2063
260.73419	2037
260.75543	2035
260.77667	2014
260.79791	2047
260.81912	2023
260.84036	2054
260.8616	2045
260.88284	2088
260.90408	2047
260.92532	2061
260.94656	2070
260.9678	2093
260.98904	2083
261.01025	2131
261.03149	2126
261.05273	2107
261.07397	2138
261.09521	2162
261.11646	2178
261.1377	2202
261.15891	2220
261.18015	2202
261.20139	2238
261.22263	2235
261.24387	2257
261.26508	2271
261.28632	2274
261.30756	2314
261.3288	2353
261.35004	2354
261.37125	2366
261.39249	2421
261.41373	2406
261.43497	2429
261.45618	2396
261.47742	2373
261.49866	2372
261.51987	2417
261.54111	2391
261.56235	2368
261.58359	2347
261.6048	2345
261.62604	2326
261.64728	2319
261.66849	2287
261.68973	2292
261.71097	2261
261.73218	2226
261.75342	2241
261.77466	2202
261.79587	2163
261.81711	2172
261.83835	2166
261.85956	2163
261.8808	2139
261.90201	2099
261.92325	2074
261.94449	2094
261.9657	2046
261.98694	2024
262.00815	2024
262.02939	2021
262.05063	2022
262.07184	1996
262.09308	2063
262.11429	2101
262.13553	2014
262.15674	2057
262.17798	2197
262.19919	2011
262.22043	2041
262.24164	2004
262.26288	2065
262.28409	2071
262.30533	2062
262.32654	2102
262.34778	2091
262.36899	2100
262.39023	2136
262.41144	2129
262.43268	2158
262.45389	2181
262.47513	2179
262.49634	2246
262.51758	2216
262.53879	2218
262.56	2248
262.58124	2266
262.60245	2283
262.62369	2290
262.6449	2328
262.66611	2350
262.68735	2349
262.70856	2382
262.7298	2392
262.75101	2394
262.77222	2410
262.79346	2462
262.81467	2469
262.83588	2479
262.85712	2490
262.87833	2507
262.89954	2491
262.92078	2513
262.94199	2464
262.9632	2472
262.98444	2458
263.00565	2473
263.02686	2431
263.04807	2482
263.06931	2471
263.09052	2461
263.11172	2438
263.13293	2463
263.15417	2462
263.17538	2437
263.19659	2428
263.2178	2413
263.23904	2457
263.26025	2442
263.28146	2448
263.30267	2586
263.32388	2466
263.34512	2404
263.36633	2421
263.38754	2402
263.40875	2441
263.42996	2427
263.45117	2451
263.47241	2472
263.49362	2621
263.51483	2555
263.53604	2491
263.55725	2521
263.57846	2545
263.59967	2533
263.62091	2562
263.64212	2613
263.66333	2593
263.68454	2659
263.70575	2648
263.72696	2690
263.74817	2736
263.76938	2746
263.79059	2767
263.8118	2828
263.83301	2832
263.85422	2884
263.87543	2925
263.89664	2971
263.91785	3010
263.93906	3049
263.96027	3094
263.98148	3125
264.00269	3154
264.0239	3175
264.0451	3132
264.06631	3194
264.08752	3229
264.10873	3252
264.12994	3243
264.15115	3279
264.17236	3272
264.19357	3313
264.21478	3300
264.23599	3325
264.2572	3321
264.27841	3325
264.29962	3366
264.32083	3325
264.34204	3325
264.36322	3288
264.38443	3315
264.40564	3268
264.42685	3277
264.44806	3230
264.46927	3216
264.49048	3215
264.51169	3232
264.53287	3196
264.55408	3160
264.57529	3113
264.5965	3105
264.61771	3091
264.63889	3065
264.6601	3046
264.6813	3077
264.70251	3027
264.72372	3044
264.7449	3022
264.76611	3054
264.78732	3043
264.80853	3010
264.82971	3053
264.85092	3077
264.87213	3056
264.89334	3078
264.91452	3085
264.93573	3066
264.95694	3064
264.97815	3045
264.99933	3082
265.02054	3107
265.04175	3140
265.06293	3148
265.08414	3154
265.10535	3184
265.12653	3206
265.14774	3186
265.16895	3238
265.19012	3253
265.21133	3257
265.23254	3280
265.25372	3299
265.27493	3277
265.29611	3277
265.31732	3318
265.33853	3316
265.35971	3317
265.38092	3309
265.4021	3326
265.42331	3253
265.44449	3215
265.4657	3244
265.48691	3230
265.50809	3211
265.5293	3240
265.55048	3142
265.57169	3121
265.59286	3076
265.61407	3093
265.63525	3139
265.65646	3038
265.67764	2979
265.69885	2964
265.72003	2913
265.74124	2882
265.76242	2825
265.78363	2808
265.80481	2770
265.82602	2737
265.8472	2703
265.86838	2674
265.88959	2665
265.91077	2625
265.93198	2574
265.95316	2571
265.97437	2550
265.99554	2534
266.01672	2483
266.03793	2470
266.05911	2489
266.08029	2454
266.1015	2454
266.12268	2448
266.14389	2482
266.16507	2470
266.18625	2492
266.20746	2486
266.22864	2470
266.24982	2497
266.27103	2488
266.29221	2487
266.31339	2490
266.33456	2484
266.35577	2513
266.37695	2554
266.39813	2591
266.41934	2578
266.44052	2681
266.4617	2698
266.48288	2741
266.50409	2767
266.52527	2797
266.54645	2854
266.56763	2908
266.58884	2966
266.61002	3027
266.6312	3168
266.65237	3211
266.67355	3238
266.69476	3347
266.71594	3395
266.73712	3464
266.7583	3565
266.77948	3639
266.80066	3750
266.82187	3872
266.84305	4013
266.86423	4001
266.88541	4122
266.90659	4329
266.92776	4248
266.94894	4375
266.97012	4458
266.9913	4522
267.01251	4592
267.03369	4700
267.05487	4724
267.07605	4789
267.09723	4882
267.11841	4907
267.13959	4974
267.16077	4955
267.18195	4938
267.20313	4915
267.2243	4860
267.24548	4826
267.26666	4751
267.28784	4731
267.30902	4652
267.3302	4592
267.35138	4517
267.37256	4464
267.39374	4378
267.41492	4298
267.4361	4233
267.45728	4176
267.47845	4083
267.49963	4065
267.52081	3953
267.54199	3921
267.56317	3877
267.58435	3862
267.6055	3771
267.62668	3761
267.64786	3657
267.66904	3622
267.69022	3572
267.7114	3541
267.73257	3502
267.75375	3481
267.7749	3465
267.79608	3420
267.81726	3394
267.83844	3370
267.85962	3354
267.8808	3363
267.90195	3410
267.92313	3412
267.94431	3435
267.96548	3366
267.98666	3401
268.00781	3421
268.02899	3466
268.05017	3453
268.07135	3558
268.0925	3613
268.11368	3601
268.13486	3591
268.15604	3665
268.17719	3681
268.19836	3734
268.21954	3792
268.24072	3828
268.26187	3858
268.28305	3889
268.30423	3943
268.32538	4013
268.34656	4091
268.36774	4081
268.38889	4108
268.41006	4171
268.43124	4260
268.45239	4288
268.47357	4423
268.49475	4452
268.5159	4505
268.53708	4562
268.55823	4679
268.57941	4715
268.60059	4757
268.62173	4838
268.64291	4847
268.66406	4817
268.68524	5045
268.70642	4847
268.72757	4885
268.74875	4849
268.7699	4836
268.79108	4735
268.81223	4807
268.8334	4770
268.85455	4764
268.87573	4692
268.89688	4763
268.91806	4619
268.93921	4627
268.96039	4509
268.98154	4501
269.00272	4420
269.02386	4359
269.04504	4325
269.06619	4277
269.08737	4275
269.10852	4201
269.12967	4133
269.15085	4083
269.172	4029
269.19318	4010
269.21432	3997
269.2355	4093
269.25665	4229
269.2778	4239
269.29898	3861
269.32013	3880
269.34128	3858
269.36246	3843
269.38361	3775
269.40475	3798
269.42593	3734
269.44708	3744
269.46823	3743
269.48941	3767
269.51056	3790
269.53171	3795
269.55289	3782
269.57404	3813
269.59518	3837
269.61636	3836
269.63751	3877
269.65866	3929
269.67981	3931
269.70099	3958
269.72214	3973
269.74329	4047
269.76443	4150
269.78561	4108
269.80676	4129
269.82791	4134
269.84906	4189
269.87021	4241
269.89139	4350
269.91254	4452
269.93369	4533
269.95483	4527
269.97598	4573
269.99713	4659
270.01831	4745
270.03946	4852
270.06061	4912
270.08176	4942
270.10291	5033
270.12405	5050
270.1452	5132
270.16635	5189
270.18753	5304
270.20868	5303
270.22983	5347
270.25098	5405
270.27213	5433
270.29327	5516
270.31442	5454
270.33557	5487
270.35672	5455
270.37787	5468
270.39902	5465
270.42017	5466
270.44131	5490
270.46246	5563
270.48361	5461
270.50476	5425
270.52591	5433
270.54706	5477
270.56821	5435
270.58936	5351
270.6105	5297
270.63165	5237
270.6528	5253
270.67395	5202
270.6951	5161
270.71625	5186
270.7374	5104
270.75854	5100
270.77969	5074
270.80081	5111
270.82196	5031
270.84311	4998
270.86426	4962
270.88541	4927
270.90656	4942
270.9277	4943
270.94885	4898
270.96997	4905
270.99112	4887
271.01227	4898
271.03342	4932
271.05457	4883
271.07571	4887
271.09683	4963
271.11798	4915
271.13913	4975
271.16028	5005
271.1814	5033
271.20255	5048
271.22369	5090
271.24484	5128
271.26599	5144
271.28711	5217
271.30826	5255
271.32941	5233
271.35052	5299
271.37167	5351
271.39282	5381
271.41397	5488
271.43509	5540
271.45624	5585
271.47739	5667
271.4985	5705
271.51965	5824
271.5408	5860
271.56192	5874
271.58307	5928
271.60422	5988
271.62534	6033
271.64648	6077
271.66763	6104
271.68875	6220
271.7099	6210
271.73102	6236
271.75217	6249
271.77332	6235
271.79443	6276
271.81558	6342
271.8367	6352
271.85785	6453
271.87897	6484
271.90012	6495
271.92123	6531
271.94238	6632
271.96353	6526
271.98465	6547
272.0058	6523
272.02692	6503
272.04807	6508
272.06918	6466
272.09033	6438
272.11145	6372
272.13257	6304
272.15372	6302
272.17484	6362
272.19598	6348
272.2171	6371
272.23825	6360
272.25937	6257
272.28052	6244
272.30164	6187
272.32275	6195
272.3439	6269
272.36502	6216
272.38617	6278
272.40729	6263
272.42841	6227
272.44955	6194
272.47067	6220
272.49179	6188
272.51294	6197
272.53406	6187
272.55518	6205
272.57632	6189
272.59744	6141
272.61856	6120
272.63971	6118
272.66083	6124
272.68195	6122
272.70309	6127
272.72421	6155
272.74533	6123
272.76645	6124
272.7876	6181
272.80872	6158
272.82983	6213
272.85095	6234
272.8721	6287
272.89322	6331
272.91434	6282
272.93546	6339
272.95657	6322
272.97772	6300
272.99884	6319
273.01996	6312
273.04108	6405
273.06219	6373
273.08334	6290
273.10446	6317
273.12558	6347
273.1467	6387
273.16782	6376
273.18893	6393
273.21005	6426
273.23117	6394
273.25232	6401
273.27344	6395
273.29456	6477
273.31567	6533
273.33679	6504
273.35791	6555
273.37903	6505
273.40015	6482
273.42126	6496
273.44238	6495
273.4635	6452
273.48462	6510
273.50574	6477
273.52686	6485
273.54797	6423
273.56909	6419
273.59021	6420
273.61133	6495
273.63245	6495
273.65356	6525
273.67468	6473
273.6958	6481
273.71692	6449
273.73804	6422
273.75916	6460
273.78027	6466
273.80139	6519
273.82251	6606
273.84363	6541
273.86475	6521
273.88586	6540
273.90695	6562
273.92807	6556
273.94919	6543
273.97031	6552
273.99142	6569
274.01254	6455
274.03366	6496
274.05475	6441
274.07587	6505
274.09698	6410
274.1181	6377
274.13922	6392
274.16034	6444
274.18143	6466
274.20255	6522
274.22366	6484
274.24478	6436
274.26587	6489
274.28699	6556
274.30811	6600
274.32922	6599
274.35031	6612
274.37143	6639
274.39255	6658
274.41367	6656
274.43475	6650
274.45587	6633
274.47699	6723
274.49808	6736
274.5192	6665
274.54031	6745
274.5614	6782
274.58252	6803
274.60364	6853
274.62473	6871
274.64584	6889
274.66696	6915
274.68805	6888
274.70917	6888
274.73029	6884
274.75137	6869
274.77249	6884
274.79358	7032
274.8147	7049
274.83582	7074
274.8569	6956
274.87802	6984
274.89911	7005
274.92023	7109
274.94131	7062
274.96243	7109
274.98352	7103
275.00464	7111
275.02573	7127
275.04684	7139
275.06793	7210
275.08905	7221
275.11014	7213
275.13126	7251
275.15234	7285
275.17346	7233
275.19455	7245
275.21567	7242
275.23676	7232
275.25787	7269
275.27896	7275
275.30008	7296
275.32117	7352
275.34225	7381
275.36337	7423
275.38446	7388
275.40558	7407
275.42667	7493
275.44775	7485
275.46887	7530
275.48996	7565
275.51105	7613
275.53217	7607
275.55325	7579
275.57434	7578
275.59546	7558
275.61655	7640
275.63763	7727
275.65875	7816
275.67984	7801
275.70093	7837
275.72205	7869
275.74313	7915
275.76422	7913
275.78531	7956
275.80643	7982
275.82751	8035
275.8486	8054
275.86969	8079
275.89078	8074
275.9119	8110
275.93298	8186
275.95407	8166
275.97516	8199
275.99628	8267
276.01736	8293
276.03845	8304
276.05954	8328
276.08063	8297
276.10172	8215
276.1228	8161
276.14392	8098
276.16501	8149
276.1861	8077
276.20718	8051
276.22827	8085
276.24936	8126
276.27045	8164
276.29153	8150
276.31262	8185
276.33374	8163
276.35483	8152
276.37592	8191
276.397	8224
276.41809	8304
276.43918	8327
276.46027	8288
276.48135	8255
276.50244	8276
276.52353	8308
276.54462	8298
276.5657	8276
276.58679	8321
276.60788	8267
276.62897	8294
276.65005	8171
276.67114	8183
276.69223	8099
276.71332	8134
276.73441	8138
276.75549	8229
276.77655	8218
276.79764	8224
276.81873	8217
276.83981	8233
276.8609	8218
276.88199	8199
276.90308	8210
276.92416	8291
276.94525	8328
276.96631	8315
276.9874	8287
277.00848	8293
277.02957	8294
277.05066	8298
277.07175	8297
277.0928	8310
277.11389	8336
277.13498	8289
277.15607	8235
277.17715	8243
277.19821	8325
277.2193	8285
277.24039	8347
277.26147	8369
277.28253	8357
277.30362	8274
277.32471	8272
277.34579	8314
277.36685	8291
277.38794	8309
277.40903	8318
277.43008	8425
277.45117	8440
277.47226	8384
277.49335	8249
277.5144	8136
277.53549	8119
277.55658	8121
277.57764	8090
277.59872	8163
277.61978	8185
277.64087	8139
277.66196	8099
277.68301	8094
277.7041	7993
277.72516	7968
277.74625	7958
277.76733	7862
277.78839	7888
277.80948	7845
277.83054	7698
277.85162	7641
277.87268	7568
277.89377	7479
277.91486	7553
277.93591	7569
277.957	7570
277.97806	7535
277.99915	7476
278.0202	7414
278.04129	7357
278.06235	7362
278.08344	7354
278.10449	7406
278.12555	7387
278.14664	7361
278.16769	7355
278.18878	7262
278.20984	7231
278.23093	7205
278.25198	7165
278.27304	7223
278.29413	7186
278.31519	7157
278.33627	7170
278.35733	7138
278.37839	7091
278.39948	7087
278.42053	7069
278.44159	7055
278.46268	7045
278.48373	7045
278.50479	7052
278.52588	7113
278.54694	7108
278.56799	7199
278.58908	7274
278.61014	7340
278.6312	7345
278.65228	7390
278.67334	7397
278.6944	7421
278.71545	7452
278.73654	7494
278.7576	7541
278.77866	7557
278.79971	7567
278.82077	7582
278.84186	7628
278.86292	7704
278.88397	7720
278.90503	7787
278.92609	7816
278.94717	7860
278.96823	7901
278.98929	8027
279.01035	8066
279.0314	8157
279.05246	8253
279.07352	8288
279.0946	8341
279.11566	8428
279.13672	8490
279.15778	8553
279.17883	8617
279.19989	8688
279.22095	8794
279.242	8797
279.26306	8942
279.28412	8930
279.30518	9040
279.32623	9058
279.34729	9184
279.36838	9300
279.38943	9395
279.41049	9453
279.43155	9490
279.45261	9463
279.47366	9472
279.49472	9606
279.51575	9620
279.5368	9813
279.55786	9863
279.57892	9925
279.59998	9927
279.62103	9987
279.64209	9994
279.66315	9969
279.6842	9998
279.70526	10019
279.72632	9971
279.74738	9990
279.76843	9914
279.78946	9955
279.81052	9905
279.83157	9829
279.85263	9865
279.87369	9889
279.89474	9931
279.9158	9878
279.93683	9874
279.95789	9836
279.97894	9716
280	9765
280.02106	9788
280.04208	9791
280.06314	9777
280.0842	9769
280.10526	9868
280.12628	9837
280.14734	9783
280.1684	9707
280.18945	9734
280.21048	9790
280.23154	9677
280.25259	9669
280.27365	9593
280.29468	9735
280.31573	9694
280.33679	9748
280.35782	9792
280.37888	9830
280.39993	9771
280.42096	9632
280.44202	9742
280.46307	9697
280.4841	9693
280.50516	9636
280.52618	9768
280.54724	9845
280.5683	9739
280.58932	9706
280.61038	9702
280.63141	9708
280.65247	9761
280.67352	9874
280.69455	9813
280.71561	9856
280.73663	9857
280.75769	9823
280.77872	9941
280.79977	9940
280.8208	9956
280.84186	9999
280.86288	9931
280.88394	9926
280.90497	9893
280.92603	9874
280.94705	9923
280.96811	10006
280.98914	10006
281.01019	9925
281.03122	9941
281.05225	10004
281.0733	10041
281.09433	10022
281.11539	9982
281.13641	9999
281.15744	10011
281.1785	9964
281.19952	9990
281.22058	10008
281.24161	10018
281.26263	9936
281.28369	9928
281.30472	9858
281.32574	9857
281.3468	9933
281.36783	9982
281.38885	10004
281.40991	9970
281.43094	9910
281.45197	10002
281.47299	10030
281.49405	10065
281.51508	10045
281.5361	10037
281.55713	10092
281.57819	10082
281.59921	10032
281.62024	9998
281.64127	9992
281.66232	10025
281.68335	10043
281.70438	10155
281.7254	10248
281.74643	10354
281.76746	10397
281.78851	10398
281.80954	10430
281.83057	10398
281.85159	10279
281.87262	10268
281.89365	10360
281.91467	10316
281.93573	10400
281.95676	10572
281.97778	10666
281.99881	10692
282.01984	10729
282.04086	10773
282.06189	10784
282.08292	10891
282.10394	10878
282.12497	11173
282.146	11299
282.16702	11399
282.18805	11351
282.20908	11498
282.2301	11644
282.25113	11692
282.27216	11714
282.29318	11794
282.31421	11851
282.33524	11903
282.35626	11898
282.37729	11857
282.39832	11870
282.41934	11997
282.44037	12019
282.4614	12135
282.48242	12311
282.50345	12414
282.52448	12428
282.54547	12426
282.5665	12560
282.58752	12689
282.60855	12735
282.62958	12795
282.6506	12944
282.67163	12970
282.69266	13031
282.71365	13092
282.73468	13096
282.75571	13014
282.77673	13101
282.79776	13152
282.81876	13209
282.83978	13270
282.86081	13376
282.88184	13321
282.90283	13384
282.92386	13437
282.94489	13538
282.96591	13555
282.98691	13650
283.00793	13621
283.02896	13560
283.04999	13645
283.07098	13715
283.09201	13866
283.11304	13984
283.13403	14108
283.15506	14184
283.17609	14295
283.19708	14290
283.21811	14225
283.23914	14152
283.26013	14253
283.28116	14370
283.30215	14351
283.32318	14530
283.34421	14563
283.3652	14607
283.38623	14654
283.40723	14663
283.42825	14740
283.44928	14731
283.47028	14803
283.4913	14840
283.5123	14877
283.53333	14875
283.55432	14857
283.57535	14789
283.59634	14769
283.61737	14844
283.63837	15001
283.65939	15239
283.68039	15241
283.70142	15186
283.72241	15106
283.74344	15100
283.76443	15197
283.78543	15344
283.80646	15461
283.82745	15554
283.84848	15572
283.86948	15688
283.8905	15552
283.9115	15581
283.9325	15564
283.95352	15511
283.97452	15589
283.99551	15663
284.01654	15650
284.03754	15510
284.05853	15530
284.07956	15435
284.10056	15328
284.12155	15307
284.14258	15301
284.16357	15311
284.18457	15179
284.2056	15146
284.22659	15082
284.24759	15019
284.26859	14960
284.28961	15101
284.31061	15109
284.3316	15163
284.3526	15106
284.37363	15072
284.39462	15035
284.41562	14961
284.43661	14886
284.45761	14840
284.47864	14848
284.49963	14825
284.52063	14680
284.54163	14628
284.56262	14651
284.58362	14684
284.60464	14680
284.62564	14654
284.64664	14636
284.66763	14550
284.68863	14508
284.70963	14464
284.73062	14604
284.75162	14720
284.77261	14753
284.79361	14786
284.81461	14775
284.83563	14777
284.85663	14752
284.87762	14638
284.89862	14643
284.91962	14664
284.94061	14757
284.96161	14767
284.9826	14782
285.0036	14696
285.0246	14765
285.04559	14867
285.06659	15017
285.08759	14990
285.10855	14970
285.12955	15076
285.15054	15090
285.17154	15016
285.19254	15070
285.21353	15129
285.23453	15297
285.25552	15384
285.27652	15450
285.29752	15416
285.31851	15489
285.33948	15527
285.36047	15510
285.38147	15440
285.40247	15479
285.42346	15509
285.44446	15405
285.46542	15349
285.48642	15347
285.50742	15325
285.52841	15161
285.54941	14940
285.57037	14795
285.59137	14801
285.61237	14877
285.63336	14967
285.65433	15007
285.67532	14803
285.69632	14732
285.71732	14767
285.73828	14868
285.75928	14745
285.78027	14595
285.80124	14646
285.82224	14603
285.84323	14473
285.8642	14367
285.88519	14194
285.90619	14173
285.92715	14011
285.94815	13893
285.96915	13812
285.99011	13749
286.01111	13720
286.03207	13628
286.05307	13601
286.07407	13519
286.09503	13360
286.11603	13169
286.13699	12986
286.15799	12945
286.17896	12848
286.19995	12852
286.22095	12751
286.24191	12875
286.26291	12713
286.28387	12597
286.30487	12487
286.32584	12546
286.34683	12428
286.3678	12433
286.38879	12450
286.40976	12501
286.43073	12471
286.45172	12369
286.47269	12382
286.49368	12422
286.51465	12494
286.53564	12562
286.55661	12597
286.57758	12604
286.59857	12573
286.61954	12580
286.64053	12583
286.6615	12645
286.68246	12798
286.70346	12796
286.72443	12952
286.74539	13106
286.76639	13210
286.78735	13293
286.80832	13369
286.82932	13476
286.85028	13596
286.87125	13651
286.89221	13824
286.91321	13965
286.93417	14208
286.95514	14328
286.9761	14348
286.9971	14431
287.01807	14670
287.03903	14799
287.06	15134
287.08099	15419
287.10196	15516
287.12292	15648
287.14389	15842
287.16486	16080
287.18582	16236
287.20682	16524
287.22778	16701
287.24875	16892
287.26971	17097
287.29068	17245
287.31165	17478
287.33261	17857
287.35361	18104
287.37457	18179
287.39554	18461
287.4165	18790
287.43747	18935
287.45844	19110
287.4794	19342
287.50037	19459
287.52133	19492
287.5423	19424
287.56326	19427
287.58423	19472
287.60519	19658
287.62616	19660
287.64713	19848
287.66809	20100
287.68906	20158
287.71002	20051
287.73099	19995
287.75195	20051
287.77292	20164
287.79388	20130
287.81485	20343
287.83582	20514
287.85678	20547
287.87775	20432
287.89868	20296
287.91965	20328
287.94061	20324
287.96158	20395
287.98254	20262
288.00351	20181
288.02448	20014
288.04544	19863
288.06638	19654
288.08734	19305
288.10831	19094
288.12927	19017
288.15024	19136
288.17117	19340
288.19214	19429
288.2131	19177
288.23407	19003
288.255	18842
288.27597	18942
288.29694	18971
288.3179	18970
288.33884	18988
288.3598	18994
288.38077	18866
288.40173	18731
288.42267	18794
288.44363	18611
288.4646	18539
288.48553	18592
288.5065	18620
288.52747	18593
288.5484	18541
288.56937	18467
288.59033	18501
288.61127	18524
288.63223	18667
288.65317	18673
288.67413	18715
288.6951	18752
288.71603	18719
288.737	18663
288.75793	18745
288.7789	18937
288.79984	19178
288.8208	19317
288.84174	19472
288.8627	19615
288.88367	19636
288.9046	19609
288.92557	19425
288.9465	19504
288.96747	19601
288.9884	19699
289.00934	19819
289.0303	20001
289.05124	20098
289.0722	20182
289.09314	20197
289.11411	20164
289.13504	20146
289.15601	20232
289.17694	20314
289.19788	20454
289.21884	20617
289.23978	20586
289.26071	20524
289.28168	20512
289.30261	20306
289.32358	20382
289.34451	20762
289.36545	20871
289.38641	20816
289.40735	20644
289.42828	20472
289.44922	20347
289.47018	20303
289.49112	20350
289.51205	20427
289.53302	20469
289.55396	20426
289.57489	20276
289.59583	20117
289.61679	20029
289.63773	19908
289.65866	19872
289.6796	19751
289.70053	19602
289.7215	19382
289.74243	19177
289.76337	18915
289.7843	18769
289.80524	18483
289.82617	18320
289.84714	18184
289.86807	17987
289.88901	17858
289.90994	17695
289.93088	17498
289.95181	17355
289.97275	17299
289.99368	17330
290.01462	17266
290.03558	17318
290.05652	16982
290.07745	16888
290.09839	16833
290.11932	16602
290.14026	16400
290.16119	16248
290.18213	16215
290.20306	16217
290.224	16001
290.24493	15913
290.26587	15849
290.2868	15977
290.30774	15927
290.32867	15872
290.34961	15791
290.37054	15732
290.39145	15689
290.41238	15656
290.43332	15788
290.45425	15888
290.47519	15966
290.49612	15983
290.51706	16044
290.53799	16073
290.55893	15978
290.57983	15977
290.60077	16042
290.6217	16116
290.64264	16284
290.66357	16387
290.68451	16472
290.70541	16549
290.72635	16732
290.74728	17016
290.76822	17209
290.78915	17615
290.81006	17662
290.83099	17895
290.85193	18145
290.87286	18300
290.89377	18671
290.9147	19065
290.93564	19609
290.95657	19957
290.97748	20153
290.99841	20277
291.01935	20451
291.04025	20666
291.06119	20773
291.08212	20886
291.10303	21015
291.12396	21207
291.1449	21420
291.1658	21525
291.18674	21653
291.20764	21856
291.22858	21847
291.24951	21836
291.27042	21989
291.29135	22385
291.31226	22764
291.33319	23132
291.3541	23272
291.37503	23419
291.39597	23678
291.41687	23997
291.43781	24317
291.45871	24329
291.47964	24432
291.50055	24702
291.52148	24811
291.54239	25054
291.56332	25118
291.58423	25256
291.60513	25330
291.62607	25265
291.64697	25218
291.66791	25362
291.68881	25588
291.70975	25572
291.73065	25608
291.75156	25764
291.77249	25721
291.7934	25493
291.81433	25238
291.83524	25036
291.85614	24985
291.87708	24985
291.89798	25040
291.91888	25058
291.93982	25008
291.96072	24884
291.98163	24667
292.00253	24512
292.02347	24465
292.04437	24306
292.06528	24264
292.08621	24284
292.10712	24199
292.12802	24064
292.14893	23850
292.16986	23861
292.19077	23804
292.21167	23631
292.23257	23492
292.25348	23539
292.27441	23399
292.29532	23094
292.31622	22899
292.33713	22846
292.35803	22829
292.37894	22770
292.39987	22616
292.42078	22563
292.44168	22567
292.46259	22634
292.48349	22495
292.50439	22420
292.5253	22536
292.5462	22379
292.56711	22347
292.58801	22387
292.60892	22436
292.62982	22495
292.65076	22391
292.67166	22243
292.69257	22178
292.71347	22142
292.73438	22277
292.75528	22357
292.77618	22427
292.79709	22469
292.81799	22426
292.83887	22581
292.85977	22571
292.88068	22600
292.90158	22765
292.92249	22765
292.94339	22901
292.96429	23032
292.9852	22944
293.0061	23058
293.02701	23231
293.04791	23319
293.06882	23373
293.08969	23657
293.1106	23890
293.1315	23978
293.1524	24166
293.17331	24116
293.19421	24204
293.21509	24256
293.23599	24208
293.2569	24057
293.2778	24170
293.29871	24333
293.31958	24468
293.34048	24743
293.36139	24866
293.38229	24896
293.40317	24914
293.42407	25119
293.44498	25271
293.46585	25378
293.48676	25530
293.50766	25896
293.52856	26258
293.54944	26321
293.57034	26121
293.59125	26244
293.61212	26378
293.63303	26552
293.6539	26724
293.6748	26759
293.69571	26700
293.71658	26689
293.73749	26462
293.75836	26101
293.77927	26062
293.80017	26067
293.82104	26076
293.84195	26265
293.86282	26469
293.88373	26489
293.9046	26347
293.92551	26148
293.94638	26140
293.96729	26169
293.98816	26262
294.00906	26197
294.02994	26224
294.05084	26122
294.07172	25897
294.09262	25702
294.11349	25633
294.1344	25389
294.15527	25196
294.17618	25209
294.19705	25076
294.21793	24947
294.23883	24852
294.2597	24668
294.28061	24547
294.30148	24463
294.32236	24417
294.34326	24366
294.36414	24402
294.38501	24160
294.40591	23895
294.42679	23821
294.44766	23809
294.46857	23745
294.48944	23711
294.51031	23716
294.53119	23802
294.55209	23908
294.57297	23716
294.59384	23468
294.61472	23312
294.63562	23130
294.65649	23213
294.67737	23228
294.69824	23347
294.71915	23359
294.74002	23425
294.76089	23320
294.78177	23360
294.80264	23348
294.82352	23236
294.84442	23232
294.8653	23359
294.88617	23367
294.90704	23547
294.92792	23395
294.94879	23336
294.96967	23232
294.99054	23116
295.01144	23343
295.03232	23732
295.05319	23790
295.07407	23741
295.09494	23737
295.11581	23502
295.13669	23701
295.15756	23895
295.17844	24145
295.19931	24408
295.22018	24741
295.24106	24925
295.26193	24944
295.28281	24950
295.30368	25148
295.32455	25218
295.34543	25512
295.3663	25570
295.38718	25643
295.40802	25756
295.42889	25824
295.44977	26084
295.47064	26120
295.49152	26127
295.51239	26040
295.53326	26125
295.55414	26329
295.57501	26366
295.59586	26604
295.61673	26813
295.6376	27001
295.65848	27203
295.67935	27403
295.7002	27846
295.72107	27804
295.74194	27746
295.76282	28016
295.78369	28325
295.80453	28336
295.82541	28223
295.84628	28417
295.86716	28713
295.888	28894
295.90887	28775
295.92975	28788
295.95059	28951
295.97147	29091
295.99234	29290
296.01318	29511
296.03406	29676
296.05493	29648
296.07578	29870
296.09665	29907
296.11752	30151
296.13837	30520
296.15924	30724
296.18008	30878
296.20096	31066
296.22183	31175
296.24268	31096
296.26355	31184
296.28439	31355
296.30527	31578
296.32611	31765
296.34698	31970
296.36786	32041
296.3887	32072
296.40958	32156
296.43042	32326
296.45129	32723
296.47214	33036
296.49298	33193
296.51385	33340
296.5347	33218
296.55557	33185
296.57642	33453
296.59729	33653
296.61813	34020
296.63901	34299
296.65985	34405
296.68069	34406
296.70157	34508
296.72241	34437
296.74326	34551
296.76413	34559
296.78497	34742
296.80585	34619
296.82669	34324
296.84753	34339
296.86841	34459
296.88925	34275
296.9101	33903
296.93094	33689
296.95181	33696
296.97266	33817
296.9935	33883
297.01434	33827
297.03522	33709
297.05606	33379
297.0769	33143
297.09775	33277
297.11862	33242
297.13947	32994
297.16031	32809
297.18115	32880
297.202	32752
297.22287	32438
297.24371	32332
297.26456	32125
297.2854	31857
297.30624	31326
297.32709	31064
297.34793	30936
297.3688	30971
297.38965	30659
297.41049	30573
297.43134	30238
297.45218	29986
297.47302	29670
297.49387	29481
297.51471	29280
297.53555	29240
297.5564	29054
297.57724	28865
297.59808	28681
297.61893	28617
297.63977	28480
297.66061	28305
297.68146	28203
297.7023	28154
297.72314	28128
297.74399	28044
297.76483	28023
297.78568	28109
297.80652	27941
297.82736	28034
297.84821	28027
297.86905	28179
297.88986	28123
297.91071	28022
297.93155	27940
297.95239	27766
297.97324	27786
297.99408	27736
298.01492	27969
298.03574	28035
298.05658	28083
298.07742	28045
298.09827	28089
298.11911	28456
298.13992	28719
298.16077	28777
298.18161	28814
298.20245	28958
298.22327	29096
298.24411	29160
298.26495	29370
298.2858	29595
298.30661	29880
298.32745	30002
298.3483	30054
298.36911	30034
298.38995	30195
298.4108	30421
298.43161	30752
298.45245	30899
298.4733	31027
298.49411	31432
298.51495	31609
298.5358	32001
298.55661	32575
298.57745	32654
298.59827	32802
298.61911	32956
298.63995	33104
298.66077	33306
298.68161	33269
298.70242	33565
298.72327	33939
298.74408	34196
298.76492	34363
298.78574	35013
298.80658	35368
298.82739	35753
298.84824	35777
298.86905	36285
298.88989	36030
298.91071	36515
298.93155	36458
298.95236	36790
298.97321	36807
298.99402	37036
299.01483	37442
299.03568	37782
299.05649	37860
299.07733	38290
299.09814	38288
299.11896	38551
299.1398	38841
299.16061	39073
299.18143	39513
299.20227	39959
299.22308	40097
299.2439	40230
299.26474	40236
299.28555	40650
299.30637	40868
299.32721	41085
299.34802	41146
299.36884	41353
299.38965	41116
299.41049	41032
299.4313	40690
299.45212	40315
299.47293	40419
299.49377	40737
299.51459	41033
299.5354	41143
299.55621	41314
299.57703	41506
299.59787	41570
299.61868	41386
299.6395	41746
299.66031	41590
299.68112	41751
299.70193	41955
299.72275	41793
299.74356	41502
299.7644	41744
299.78522	41386
299.80603	41414
299.82684	41339
299.84766	41072
299.86847	41286
299.88928	41437
299.9101	41191
299.93091	41207
299.95172	40718
299.97253	41176
299.99335	41210
300.01416	40860
300.03497	41153
300.05579	40915
300.0766	40718
300.09741	40593
300.11823	40771
300.13904	40755
300.15985	40744
300.18066	40647
300.20148	40783
300.22226	40945
300.24307	40756
300.26389	40344
300.2847	40349
300.30551	40170
300.32632	40198
300.34714	40266
300.36792	40131
300.38873	39985
300.40955	40084
300.43036	40049
300.45117	39605
300.47198	39637
300.49277	39521
300.51358	39187
300.53439	39398
300.55521	39056
300.57599	39190
300.5968	38826
300.61761	38877
300.63843	38335
300.65921	38207
300.68002	38170
300.70084	38060
300.72162	38045
300.74243	37628
300.76324	37569
300.78403	36892
300.80484	36990
300.82565	36837
300.84644	36815
300.86725	36681
300.88806	36773
300.90884	36461
300.92966	36483
300.95044	36061
300.97125	35894
300.99207	35828
301.01285	35772
301.03366	35446
301.05444	35215
301.07526	34888
301.09604	34805
301.11685	34390
301.13763	34242
301.15845	33856
301.17923	33327
301.20004	33256
301.22083	32967
301.24164	32767
301.26242	32338
301.28323	32286
301.30402	32275
301.3248	32136
301.34561	32199
301.36639	32311
301.38721	31734
301.40799	31214
301.42877	30648
