Date and Time:                Tue Apr 26 17:48:12.000 2022
Software Version:             4.31.30023.0
Temperature (C):              -40
Model:                        DU940P_BU2
Data Type:                    Counts
Acquisition Mode:             Single Scan
Trigger Mode:                 Internal
Exposure Time (secs):         0.25
Readout Mode:                 Full Vertical Binning
Horizontal binning:           1
Extended Dynamic Range:       off
Horizontally flipped:         false
Vertical Shift Speed (usecs): 14.51
Pixel Readout Rate (MHz):     3
Baseline Clamp:               ON
Clock Amplitude:              Normal
Output Amplifier:             High Capacity
Serial Number:                23634
Pre-Amplifier Gain:           1.000000
Spurious Noise Filter Mode:   No Filter
Photon counted:               false
Data Averaging Filter Mode:   No Filter
SR500i:
Serial Number:                
Wavelength (nm):              280
Grating Groove Density (l/mm):1199.47
Grating Blaze:                500
Output Flipper Port:          Direct
Accessory Output Port 1:      Off
Accessory Output Port 2:      Off
Accessory Output Port 3:      Off
Accessory Input Port:         On



258.35431	3190
258.37558	3113
258.39685	3103
258.41809	3109
258.43936	3106
258.4606	3119
258.48187	3122
258.50311	3112
258.52438	3154
258.54565	3129
258.56689	3164
258.58817	3135
258.60941	3163
258.63068	3169
258.65192	3161
258.67319	3151
258.69443	3151
258.7157	3207
258.73694	3223
258.75821	3206
258.77945	3202
258.80072	3163
258.82196	3234
258.84323	3203
258.86447	3181
258.88574	3158
258.90698	3195
258.92825	3181
258.94949	3192
258.97076	3191
258.992	3211
259.01324	3203
259.03452	3237
259.05576	3240
259.07703	3238
259.09827	3237
259.11954	3191
259.14078	3232
259.16202	3244
259.18329	3215
259.20453	3248
259.22577	3274
259.24704	3304
259.26828	3315
259.28955	3296
259.31079	3303
259.33203	3281
259.3533	3304
259.37454	3327
259.39578	3310
259.41705	3350
259.43829	3380
259.45953	3388
259.4808	3353
259.50204	3364
259.52328	3376
259.54453	3388
259.5658	3428
259.58704	3406
259.60828	3442
259.62952	3387
259.65079	3408
259.67203	3432
259.69327	3429
259.71451	3411
259.73578	3420
259.75702	3445
259.77826	3450
259.7995	3434
259.82077	3421
259.84201	3447
259.86325	3456
259.88449	3460
259.90573	3469
259.92697	3496
259.94824	3513
259.96948	3501
259.99072	3496
260.01196	3514
260.0332	3497
260.05444	3494
260.07571	3493
260.09695	3479
260.11819	3482
260.13943	3490
260.16068	3507
260.18192	3530
260.20316	3526
260.2244	3527
260.24564	3552
260.26688	3525
260.28815	3569
260.30939	3575
260.33063	3591
260.35187	3621
260.37311	3642
260.39435	3644
260.41559	3633
260.43683	3648
260.45807	3653
260.47931	3669
260.50055	3663
260.52179	3674
260.54303	3673
260.56427	3667
260.58551	3643
260.60675	3640
260.62799	3658
260.64923	3650
260.67047	3651
260.69171	3724
260.71295	3757
260.73419	3708
260.75543	3733
260.77667	3735
260.79791	3722
260.81912	3752
260.84036	3782
260.8616	3785
260.88284	3832
260.90408	3809
260.92532	3835
260.94656	3843
260.9678	3786
260.98904	3806
261.01025	3799
261.03149	3844
261.05273	3817
261.07397	3849
261.09521	3809
261.11646	3823
261.1377	3837
261.15891	3839
261.18015	3834
261.20139	3859
261.22263	3848
261.24387	3846
261.26508	3841
261.28632	3835
261.30756	3880
261.3288	3880
261.35004	3920
261.37125	3905
261.39249	3947
261.41373	3977
261.43497	3954
261.45618	3971
261.47742	3921
261.49866	3926
261.51987	3933
261.54111	3965
261.56235	3928
261.58359	3961
261.6048	3948
261.62604	3974
261.64728	3976
261.66849	3988
261.68973	3994
261.71097	3992
261.73218	3990
261.75342	4008
261.77466	4025
261.79587	4090
261.81711	4061
261.83835	4055
261.85956	4077
261.8808	4117
261.90201	4067
261.92325	4079
261.94449	4097
261.9657	4121
261.98694	4131
262.00815	4138
262.02939	4122
262.05063	4120
262.07184	4093
262.09308	4094
262.11429	4165
262.13553	4197
262.15674	4178
262.17798	4197
262.19919	4213
262.22043	4184
262.24164	4222
262.26288	4217
262.28409	4276
262.30533	4294
262.32654	4320
262.34778	4311
262.36899	4283
262.39023	4301
262.41144	4331
262.43268	4297
262.45389	4320
262.47513	4339
262.49634	4329
262.51758	4326
262.53879	4340
262.56	4347
262.58124	4331
262.60245	4348
262.62369	4313
262.6449	4340
262.66611	4344
262.68735	4370
262.70856	4393
262.7298	4366
262.75101	4390
262.77222	4420
262.79346	4475
262.81467	4457
262.83588	4461
262.85712	4457
262.87833	4457
262.89954	4473
262.92078	4439
262.94199	4463
262.9632	4467
262.98444	4485
263.00565	4430
263.02686	4451
263.04807	4507
263.06931	4487
263.09052	4543
263.11172	4537
263.13293	4563
263.15417	4495
263.17538	4492
263.19659	4506
263.2178	4491
263.23904	4529
263.26025	4520
263.28146	4557
263.30267	4611
263.32388	4625
263.34512	4608
263.36633	4611
263.38754	4599
263.40875	4601
263.42996	4592
263.45117	4607
263.47241	4686
263.49362	4674
263.51483	4629
263.53604	4663
263.55725	4702
263.57846	4729
263.59967	4746
263.62091	4726
263.64212	4731
263.66333	4740
263.68454	4742
263.70575	4729
263.72696	4719
263.74817	4740
263.76938	4769
263.79059	4796
263.8118	4795
263.83301	4796
263.85422	4791
263.87543	4855
263.89664	4851
263.91785	4844
263.93906	4888
263.96027	4878
263.98148	4939
264.00269	4896
264.0239	4914
264.0451	4854
264.06631	4859
264.08752	4858
264.10873	4883
264.12994	4900
264.15115	4937
264.17236	4950
264.19357	4930
264.21478	4958
264.23599	4978
264.2572	4992
264.27841	5035
264.29962	5043
264.32083	5026
264.34204	5057
264.36322	5039
264.38443	5007
264.40564	5049
264.42685	5032
264.44806	5039
264.46927	5065
264.49048	5107
264.51169	5070
264.53287	5102
264.55408	5063
264.57529	5029
264.5965	5055
264.61771	5051
264.63889	5067
264.6601	5069
264.6813	5103
264.70251	5067
264.72372	5067
264.7449	5086
264.76611	5093
264.78732	5109
264.80853	5134
264.82971	5131
264.85092	5133
264.87213	5136
264.89334	5172
264.91452	5148
264.93573	5161
264.95694	5141
264.97815	5110
264.99933	5189
265.02054	5173
265.04175	5199
265.06293	5189
265.08414	5210
265.10535	5219
265.12653	5209
265.14774	5224
265.16895	5260
265.19012	5314
265.21133	5283
265.23254	5324
265.25372	5295
265.27493	5343
265.29611	5308
265.31732	5358
265.33853	5352
265.35971	5351
265.38092	5342
265.4021	5344
265.42331	5372
265.44449	5353
265.4657	5315
265.48691	5327
265.50809	5355
265.5293	5402
265.55048	5349
265.57169	5355
265.59286	5392
265.61407	5394
265.63525	5390
265.65646	5431
265.67764	5461
265.69885	5452
265.72003	5449
265.74124	5466
265.76242	5448
265.78363	5460
265.80481	5441
265.82602	5436
265.8472	5429
265.86838	5419
265.88959	5420
265.91077	5375
265.93198	5408
265.95316	5449
265.97437	5384
265.99554	5413
266.01672	5380
266.03793	5408
266.05911	5410
266.08029	5423
266.1015	5434
266.12268	5486
266.14389	5491
266.16507	5501
266.18625	5545
266.20746	5531
266.22864	5471
266.24982	5464
266.27103	5460
266.29221	5509
266.31339	5483
266.33456	5479
266.35577	5454
266.37695	5510
266.39813	5477
266.41934	5479
266.44052	5489
266.4617	5581
266.48288	5641
266.50409	5636
266.52527	5605
266.54645	5573
266.56763	5588
266.58884	5601
266.61002	5641
266.6312	5685
266.65237	5721
266.67355	5642
266.69476	5698
266.71594	5720
266.73712	5741
266.7583	5741
266.77948	5746
266.80066	5747
266.82187	5786
266.84305	5722
266.86423	5747
266.88541	5741
266.90659	5740
266.92776	5726
266.94894	5737
266.97012	5745
266.9913	5755
267.01251	5744
267.03369	5768
267.05487	5786
267.07605	5795
267.09723	5832
267.11841	5871
267.13959	5897
267.16077	5887
267.18195	5930
267.20313	5896
267.2243	5916
267.24548	5863
267.26666	5904
267.28784	5886
267.30902	5926
267.3302	5871
267.35138	5911
267.37256	5924
267.39374	5919
267.41492	5944
267.4361	5956
267.45728	5995
267.47845	5966
267.49963	5997
267.52081	6008
267.54199	6046
267.56317	6112
267.58435	6143
267.6055	6108
267.62668	6154
267.64786	6133
267.66904	6116
267.69022	6104
267.7114	6130
267.73257	6148
267.75375	6159
267.7749	6179
267.79608	6194
267.81726	6156
267.83844	6194
267.85962	6149
267.8808	6217
267.90195	6289
267.92313	6246
267.94431	6261
267.96548	6256
267.98666	6280
268.00781	6301
268.02899	6289
268.05017	6346
268.07135	6397
268.0925	6444
268.11368	6407
268.13486	6428
268.15604	6428
268.17719	6466
268.19836	6463
268.21954	6512
268.24072	6467
268.26187	6451
268.28305	6468
268.30423	6482
268.32538	6454
268.34656	6450
268.36774	6425
268.38889	6409
268.41006	6423
268.43124	6436
268.45239	6482
268.47357	6538
268.49475	6477
268.5159	6479
268.53708	6545
268.55823	6554
268.57941	6563
268.60059	6588
268.62173	6586
268.64291	6638
268.66406	6625
268.68524	6591
268.70642	6598
268.72757	6620
268.74875	6596
268.7699	6574
268.79108	6542
268.81223	6589
268.8334	6608
268.85455	6580
268.87573	6616
268.89688	6637
268.91806	6662
268.93921	6627
268.96039	6573
268.98154	6599
269.00272	6554
269.02386	6653
269.04504	6624
269.06619	6655
269.08737	6692
269.10852	6658
269.12967	6616
269.15085	6614
269.172	6592
269.19318	6618
269.21432	6685
269.2355	6760
269.25665	6696
269.2778	6721
269.29898	6678
269.32013	6736
269.34128	6776
269.36246	6774
269.38361	6799
269.40475	6776
269.42593	6796
269.44708	6790
269.46823	6761
269.48941	6819
269.51056	6884
269.53171	6864
269.55289	6864
269.57404	6877
269.59518	6902
269.61636	6906
269.63751	6917
269.65866	6949
269.67981	6963
269.70099	6915
269.72214	6935
269.74329	7002
269.76443	6991
269.78561	6971
269.80676	6939
269.82791	6907
269.84906	6926
269.87021	6901
269.89139	6921
269.91254	7061
269.93369	6988
269.95483	6974
269.97598	6996
269.99713	7055
270.01831	7066
270.03946	7057
270.06061	7048
270.08176	7083
270.10291	7049
270.12405	7062
270.1452	7064
270.16635	7061
270.18753	7056
270.20868	7016
270.22983	7021
270.25098	7103
270.27213	7124
270.29327	7092
270.31442	7051
270.33557	7027
270.35672	7002
270.37787	7043
270.39902	6981
270.42017	7000
270.44131	7036
270.46246	7008
270.48361	7003
270.50476	7112
270.52591	7099
270.54706	7102
270.56821	7098
270.58936	7108
270.6105	7110
270.63165	7055
270.6528	7100
270.67395	7139
270.6951	7135
270.71625	7128
270.7374	7147
270.75854	7162
270.77969	7214
270.80081	7254
270.82196	7254
270.84311	7203
270.86426	7233
270.88541	7200
270.90656	7274
270.9277	7271
270.94885	7237
270.96997	7266
270.99112	7227
271.01227	7299
271.03342	7307
271.05457	7320
271.07571	7323
271.09683	7311
271.11798	7316
271.13913	7383
271.16028	7352
271.1814	7353
271.20255	7375
271.22369	7369
271.24484	7424
271.26599	7406
271.28711	7390
271.30826	7341
271.32941	7325
271.35052	7355
271.37167	7357
271.39282	7429
271.41397	7450
271.43509	7432
271.45624	7483
271.47739	7479
271.4985	7517
271.51965	7543
271.5408	7538
271.56192	7551
271.58307	7546
271.60422	7527
271.62534	7525
271.64648	7555
271.66763	7560
271.68875	7592
271.7099	7565
271.73102	7516
271.75217	7527
271.77332	7496
271.79443	7496
271.81558	7507
271.8367	7526
271.85785	7645
271.87897	7659
271.90012	7696
271.92123	7690
271.94238	7688
271.96353	7676
271.98465	7733
272.0058	7734
272.02692	7772
272.04807	7749
272.06918	7745
272.09033	7687
272.11145	7657
272.13257	7640
272.15372	7661
272.17484	7726
272.19598	7809
272.2171	7810
272.23825	7833
272.25937	7799
272.28052	7764
272.30164	7741
272.32275	7790
272.3439	7809
272.36502	7924
272.38617	7943
272.40729	7950
272.42841	7866
272.44955	7865
272.47067	7905
272.49179	7915
272.51294	7941
272.53406	7942
272.55518	7963
272.57632	7959
272.59744	7938
272.61856	7915
272.63971	7934
272.66083	7897
272.68195	7930
272.70309	7922
272.72421	7910
272.74533	7938
272.76645	7880
272.7876	7919
272.80872	7939
272.82983	7968
272.85095	8028
272.8721	8067
272.89322	8083
272.91434	8080
272.93546	8077
272.95657	8103
272.97772	8107
272.99884	8028
273.01996	8036
273.04108	8039
273.06219	8044
273.08334	8010
273.10446	7980
273.12558	8024
273.1467	7998
273.16782	8011
273.18893	8066
273.21005	8091
273.23117	8018
273.25232	8043
273.27344	8048
273.29456	8139
273.31567	8172
273.33679	8203
273.35791	8180
273.37903	8193
273.40015	8223
273.42126	8186
273.44238	8202
273.4635	8245
273.48462	8211
273.50574	8209
273.52686	8252
273.54797	8241
273.56909	8196
273.59021	8177
273.61133	8224
273.63245	8385
273.65356	8384
273.67468	8383
273.6958	8299
273.71692	8372
273.73804	8412
273.75916	8405
273.78027	8441
273.80139	8502
273.82251	8606
273.84363	8583
273.86475	8598
273.88586	8644
273.90695	8662
273.92807	8661
273.94919	8652
273.97031	8676
273.99142	8629
274.01254	8636
274.03366	8576
274.05475	8622
274.07587	8599
274.09698	8559
274.1181	8499
274.13922	8527
274.16034	8552
274.18143	8631
274.20255	8682
274.22366	8687
274.24478	8630
274.26587	8625
274.28699	8715
274.30811	8781
274.32922	8760
274.35031	8746
274.37143	8759
274.39255	8796
274.41367	8824
274.43475	8728
274.45587	8696
274.47699	8795
274.49808	8775
274.5192	8717
274.54031	8723
274.5614	8772
274.58252	8854
274.60364	8812
274.62473	8888
274.64584	8904
274.66696	8918
274.68805	8886
274.70917	8840
274.73029	8827
274.75137	8791
274.77249	8808
274.79358	8918
274.8147	9017
274.83582	9003
274.8569	8887
274.87802	8878
274.89911	8835
274.92023	8907
274.94131	8978
274.96243	8965
274.98352	8979
275.00464	8986
275.02573	8995
275.04684	9023
275.06793	9075
275.08905	9087
275.11014	9098
275.13126	9118
275.15234	9129
275.17346	9119
275.19455	9078
275.21567	9070
275.23676	9072
275.25787	9147
275.27896	9114
275.30008	9153
275.32117	9211
275.34225	9250
275.36337	9275
275.38446	9293
275.40558	9293
275.42667	9294
275.44775	9267
275.46887	9385
275.48996	9409
275.51105	9408
275.53217	9379
275.55325	9305
275.57434	9303
275.59546	9392
275.61655	9398
275.63763	9404
275.65875	9495
275.67984	9446
275.70093	9485
275.72205	9506
275.74313	9497
275.76422	9489
275.78531	9520
275.80643	9500
275.82751	9547
275.8486	9537
275.86969	9510
275.89078	9511
275.9119	9523
275.93298	9548
275.95407	9518
275.97516	9574
275.99628	9588
276.01736	9575
276.03845	9606
276.05954	9538
276.08063	9482
276.10172	9468
276.1228	9396
276.14392	9368
276.16501	9271
276.1861	9255
276.20718	9246
276.22827	9274
276.24936	9313
276.27045	9314
276.29153	9337
276.31262	9320
276.33374	9355
276.35483	9318
276.37592	9349
276.397	9413
276.41809	9515
276.43918	9582
276.46027	9550
276.48135	9487
276.50244	9565
276.52353	9574
276.54462	9627
276.5657	9646
276.58679	9682
276.60788	9666
276.62897	9628
276.65005	9576
276.67114	9584
276.69223	9563
276.71332	9548
276.73441	9616
276.75549	9767
276.77655	9740
276.79764	9773
276.81873	9731
276.83981	9789
276.8609	9830
276.88199	9811
276.90308	9791
276.92416	9877
276.94525	9955
276.96631	9976
276.9874	9941
277.00848	10007
277.02957	9926
277.05066	9887
277.07175	9989
277.0928	10029
277.11389	9974
277.13498	9992
277.15607	9933
277.17715	9976
277.19821	9954
277.2193	10032
277.24039	10121
277.26147	10150
277.28253	10140
277.30362	10109
277.32471	10041
277.34579	10160
277.36685	10110
277.38794	10188
277.40903	10207
277.43008	10359
277.45117	10347
277.47226	10329
277.49335	10261
277.5144	10199
277.53549	10147
277.55658	10198
277.57764	10244
277.59872	10301
277.61978	10450
277.64087	10479
277.66196	10467
277.68301	10491
277.7041	10504
277.72516	10463
277.74625	10489
277.76733	10492
277.78839	10492
277.80948	10477
277.83054	10480
277.85162	10418
277.87268	10353
277.89377	10399
277.91486	10495
277.93591	10572
277.957	10664
277.97806	10614
277.99915	10598
278.0202	10520
278.04129	10624
278.06235	10712
278.08344	10748
278.10449	10863
278.12555	10909
278.14664	10923
278.16769	10855
278.18878	10895
278.20984	10924
278.23093	10884
278.25198	10946
278.27304	10974
278.29413	10905
278.31519	10928
278.33627	10967
278.35733	10981
278.37839	10970
278.39948	10934
278.42053	10919
278.44159	10901
278.46268	10949
278.48373	10947
278.50479	10923
278.52588	10959
278.54694	11014
278.56799	11065
278.58908	11125
278.61014	11169
278.6312	11219
278.65228	11176
278.67334	11241
278.6944	11208
278.71545	11220
278.73654	11231
278.7576	11213
278.77866	11247
278.79971	11191
278.82077	11120
278.84186	11162
278.86292	11172
278.88397	11184
278.90503	11084
278.92609	11111
278.94717	11143
278.96823	11086
278.98929	11121
279.01035	11170
279.0314	11204
279.05246	11230
279.07352	11313
279.0946	11304
279.11566	11213
279.13672	11276
279.15778	11227
279.17883	11244
279.19989	11282
279.22095	11301
279.242	11327
279.26306	11336
279.28412	11340
279.30518	11372
279.32623	11395
279.34729	11440
279.36838	11504
279.38943	11492
279.41049	11519
279.43155	11502
279.45261	11460
279.47366	11453
279.49472	11548
279.51575	11634
279.5368	11730
279.55786	11878
279.57892	11825
279.59998	11814
279.62103	11923
279.64209	11998
279.66315	11889
279.6842	11867
279.70526	11947
279.72632	11987
279.74738	11951
279.76843	11933
279.78946	11933
279.81052	11885
279.83157	11885
279.85263	11906
279.87369	11995
279.89474	11988
279.9158	12018
279.93683	12047
279.95789	12017
279.97894	11958
280	12009
280.02106	12097
280.04208	12131
280.06314	12085
280.0842	12095
280.10526	12286
280.12628	12248
280.14734	12187
280.1684	12180
280.18945	12211
280.21048	12223
280.23154	12218
280.25259	12209
280.27365	12233
280.29468	12277
280.31573	12368
280.33679	12454
280.35782	12485
280.37888	12551
280.39993	12488
280.42096	12377
280.44202	12419
280.46307	12463
280.4841	12422
280.50516	12468
280.52618	12589
280.54724	12608
280.5683	12541
280.58932	12510
280.61038	12493
280.63141	12515
280.65247	12580
280.67352	12655
280.69455	12698
280.71561	12728
280.73663	12692
280.75769	12673
280.77872	12836
280.79977	12920
280.8208	12897
280.84186	12868
280.86288	12974
280.88394	12926
280.90497	12854
280.92603	12926
280.94705	12918
280.96811	13026
280.98914	13094
281.01019	13010
281.03122	13026
281.05225	13122
281.0733	13152
281.09433	13176
281.11539	13224
281.13641	13244
281.15744	13219
281.1785	13272
281.19952	13281
281.22058	13310
281.24161	13377
281.26263	13307
281.28369	13201
281.30472	13242
281.32574	13230
281.3468	13342
281.36783	13415
281.38885	13463
281.40991	13380
281.43094	13371
281.45197	13464
281.47299	13515
281.49405	13535
281.51508	13547
281.5361	13576
281.55713	13572
281.57819	13534
281.59921	13507
281.62024	13446
281.64127	13413
281.66232	13358
281.68335	13461
281.70438	13559
281.7254	13653
281.74643	13627
281.76746	13715
281.78851	13696
281.80954	13646
281.83057	13489
281.85159	13475
281.87262	13349
281.89365	13412
281.91467	13316
281.93573	13438
281.95676	13508
281.97778	13658
281.99881	13648
282.01984	13581
282.04086	13536
282.06189	13477
282.08292	13488
282.10394	13622
282.12497	13801
282.146	13908
282.16702	13956
282.18805	13885
282.20908	13937
282.2301	14055
282.25113	14134
282.27216	14036
282.29318	14046
282.31421	14073
282.33524	14054
282.35626	13973
282.37729	13937
282.39832	13928
282.41934	13942
282.44037	13904
282.4614	14066
282.48242	14163
282.50345	14272
282.52448	14252
282.54547	14220
282.5665	14259
282.58752	14404
282.60855	14441
282.62958	14425
282.6506	14514
282.67163	14633
282.69266	14580
282.71365	14602
282.73468	14608
282.75571	14570
282.77673	14545
282.79776	14635
282.81876	14648
282.83978	14619
282.86081	14649
282.88184	14647
282.90283	14643
282.92386	14626
282.94489	14774
282.96591	14775
282.98691	14817
283.00793	14732
283.02896	14684
283.04999	14628
283.07098	14708
283.09201	14831
283.11304	14917
283.13403	14985
283.15506	15101
283.17609	15120
283.19708	15075
283.21811	14927
283.23914	14932
283.26013	14958
283.28116	14963
283.30215	14973
283.32318	15104
283.34421	15167
283.3652	15139
283.38623	15114
283.40723	15108
283.42825	15151
283.44928	15075
283.47028	15168
283.4913	15229
283.5123	15222
283.53333	15205
283.55432	15149
283.57535	15066
283.59634	15022
283.61737	15058
283.63837	15174
283.65939	15405
283.68039	15399
283.70142	15404
283.72241	15270
283.74344	15173
283.76443	15350
283.78543	15414
283.80646	15523
283.82745	15652
283.84848	15737
283.86948	15664
283.8905	15801
283.9115	15801
283.9325	15747
283.95352	15763
283.97452	15879
283.99551	15944
284.01654	15947
284.03754	15827
284.05853	15763
284.07956	15817
284.10056	15810
284.12155	15868
284.14258	15773
284.16357	15787
284.18457	15679
284.2056	15749
284.22659	15720
284.24759	15725
284.26859	15793
284.28961	15870
284.31061	16001
284.3316	16115
284.3526	16017
284.37363	16055
284.39462	16063
284.41562	16063
284.43661	15922
284.45761	15956
284.47864	16018
284.49963	16036
284.52063	15912
284.54163	15905
284.56262	15935
284.58362	16085
284.60464	16057
284.62564	16066
284.64664	16021
284.66763	16039
284.68863	15970
284.70963	15929
284.73062	16103
284.75162	16250
284.77261	16344
284.79361	16381
284.81461	16372
284.83563	16420
284.85663	16360
284.87762	16241
284.89862	16285
284.91962	16365
284.94061	16410
284.96161	16442
284.9826	16421
285.0036	16282
285.0246	16453
285.04559	16495
285.06659	16605
285.08759	16626
285.10855	16677
285.12955	16661
285.15054	16781
285.17154	16663
285.19254	16706
285.21353	16768
285.23453	16919
285.25552	17049
285.27652	17131
285.29752	17080
285.31851	17227
285.33948	17188
285.36047	17212
285.38147	17246
285.40247	17216
285.42346	17247
285.44446	17247
285.46542	17157
285.48642	17221
285.50742	17194
285.52841	17112
285.54941	16875
285.57037	16803
285.59137	16902
285.61237	17057
285.63336	17244
285.65433	17254
285.67532	17205
285.69632	17171
285.71732	17387
285.73828	17477
285.75928	17474
285.78027	17427
285.80124	17460
285.82224	17588
285.84323	17548
285.8642	17571
285.88519	17578
285.90619	17642
285.92715	17554
285.94815	17531
285.96915	17582
285.99011	17659
286.01111	17706
286.03207	17670
286.05307	17741
286.07407	17795
286.09503	17746
286.11603	17613
286.13699	17503
286.15799	17549
286.17896	17551
286.19995	17644
286.22095	17681
286.24191	17845
286.26291	17738
286.28387	17616
286.30487	17679
286.32584	17734
286.34683	17715
286.3678	17750
286.38879	17956
286.40976	18019
286.43073	17952
286.45172	17809
286.47269	17836
286.49368	18007
286.51465	18168
286.53564	18227
286.55661	18247
286.57758	18180
286.59857	18231
286.61954	18145
286.64053	18130
286.6615	18165
286.68246	18246
286.70346	18268
286.72443	18326
286.74539	18537
286.76639	18578
286.78735	18623
286.80832	18486
286.82932	18521
286.85028	18652
286.87125	18535
286.89221	18560
286.91321	18657
286.93417	18754
286.95514	18731
286.9761	18639
286.9971	18484
287.01807	18670
287.03903	18731
287.06	18881
287.08099	18877
287.10196	18850
287.12292	18802
287.14389	18799
287.16486	18826
287.18582	18867
287.20682	18883
287.22778	18861
287.24875	18816
287.26971	18827
287.29068	18796
287.31165	18802
287.33261	18986
287.35361	19053
287.37457	18924
287.39554	18964
287.4165	19139
287.43747	19098
287.45844	19059
287.4794	19112
287.50037	19076
287.52133	18980
287.5423	18742
287.56326	18584
287.58423	18564
287.60519	18523
287.62616	18520
287.64713	18682
287.66809	18842
287.68906	18804
287.71002	18792
287.73099	18687
287.75195	18690
287.77292	18712
287.79388	18846
287.81485	19000
287.83582	19205
287.85678	19419
287.87775	19307
287.89868	19131
287.91965	19353
287.94061	19405
287.96158	19506
287.98254	19508
288.00351	19587
288.02448	19497
288.04544	19458
288.06638	19262
288.08734	19184
288.10831	19150
288.12927	19132
288.15024	19346
288.17117	19642
288.19214	19678
288.2131	19740
288.23407	19655
288.255	19611
288.27597	19805
288.29694	19918
288.3179	19965
288.33884	20117
288.3598	20181
288.38077	20148
288.40173	20034
288.42267	20220
288.44363	20024
288.4646	20082
288.48553	20097
288.5065	20147
288.52747	20125
288.5484	20175
288.56937	20083
288.59033	20136
288.61127	20113
288.63223	20263
288.65317	20237
288.67413	20298
288.6951	20337
288.71603	20194
288.737	20128
288.75793	20135
288.7789	20322
288.79984	20420
288.8208	20507
288.84174	20703
288.8627	20768
288.88367	20669
288.9046	20525
288.92557	20406
288.9465	20302
288.96747	20334
288.9884	20335
289.00934	20463
289.0303	20506
289.05124	20514
289.0722	20471
289.09314	20483
289.11411	20416
289.13504	20399
289.15601	20367
289.17694	20446
289.19788	20559
289.21884	20505
289.23978	20508
289.26071	20502
289.28168	20427
289.30261	20324
289.32358	20414
289.34451	20602
289.36545	20899
289.38641	20943
289.40735	20722
289.42828	20619
289.44922	20608
289.47018	20669
289.49112	20847
289.51205	20954
289.53302	21170
289.55396	21205
289.57489	21195
289.59583	21187
289.61679	21226
289.63773	21249
289.65866	21292
289.6796	21354
289.70053	21432
289.7215	21523
289.74243	21381
289.76337	21341
289.7843	21318
289.80524	21218
289.82617	21175
289.84714	21276
289.86807	21284
289.88901	21299
289.90994	21251
289.93088	21261
289.95181	21291
289.97275	21448
289.99368	21656
290.01462	21989
290.03558	21870
290.05652	21700
290.07745	21739
290.09839	21941
290.11932	21863
290.14026	21661
290.16119	21653
290.18213	21774
290.20306	21781
290.224	21745
290.24493	21645
290.26587	21738
290.2868	21899
290.30774	22020
290.32867	21998
290.34961	21982
290.37054	22048
290.39145	21955
290.41238	22012
290.43332	22136
290.45425	22341
290.47519	22478
290.49612	22539
290.51706	22546
290.53799	22585
290.55893	22489
290.57983	22543
290.60077	22549
290.6217	22592
290.64264	22644
290.66357	22812
290.68451	22735
290.70541	22782
290.72635	22980
290.74728	23123
290.76822	23378
290.78915	23511
290.81006	23680
290.83099	23838
290.85193	23928
290.87286	24022
290.89377	24302
290.9147	24638
290.93564	24962
290.95657	25334
290.97748	25317
290.99841	25264
291.01935	25312
291.04025	25308
291.06119	25102
291.08212	25070
291.10303	24980
291.12396	24856
291.1449	24821
291.1658	24842
291.18674	24729
291.20764	24677
291.22858	24424
291.24951	24174
291.27042	24129
291.29135	24314
291.31226	24499
291.33319	24606
291.3541	24552
291.37503	24514
291.39597	24593
291.41687	24790
291.43781	24794
291.45871	24773
291.47964	24773
291.50055	24721
291.52148	24757
291.54239	24868
291.56332	24770
291.58423	24828
291.60513	24870
291.62607	24713
291.64697	24593
291.66791	24681
291.68881	24845
291.70975	24971
291.73065	24926
291.75156	24947
291.77249	25069
291.7934	24894
291.81433	24647
291.83524	24501
291.85614	24507
291.87708	24500
291.89798	24693
291.91888	24795
291.93982	24890
291.96072	24836
291.98163	24698
292.00253	24857
292.02347	24879
292.04437	24900
292.06528	24959
292.08621	25120
292.10712	25254
292.12802	25214
292.14893	25177
292.16986	25201
292.19077	25428
292.21167	25435
292.23257	25530
292.25348	25609
292.27441	25522
292.29532	25578
292.31622	25484
292.33713	25526
292.35803	25632
292.37894	25706
292.39987	25656
292.42078	25687
292.44168	25975
292.46259	26125
292.48349	26030
292.50439	26082
292.5253	26212
292.5462	26236
292.56711	26205
292.58801	26364
292.60892	26501
292.62982	26503
292.65076	26471
292.67166	26313
292.69257	26292
292.71347	26257
292.73438	26381
292.75528	26590
292.77618	26721
292.79709	26710
292.81799	26610
292.83887	26694
292.85977	26583
292.88068	26752
292.90158	26761
292.92249	26704
292.94339	26748
292.96429	26728
292.9852	26615
293.0061	26683
293.02701	26736
293.04791	26796
293.06882	26736
293.08969	26827
293.1106	27033
293.1315	27008
293.1524	26977
293.17331	26930
293.19421	26872
293.21509	26867
293.23599	26618
293.2569	26428
293.2778	26370
293.29871	26424
293.31958	26409
293.34048	26618
293.36139	26674
293.38229	26471
293.40317	26509
293.42407	26605
293.44498	26633
293.46585	26659
293.48676	26812
293.50766	27096
293.52856	27386
293.54944	27492
293.57034	27216
293.59125	27255
293.61212	27384
293.63303	27614
293.6539	27684
293.6748	27715
293.69571	27623
293.71658	27670
293.73749	27427
293.75836	27160
293.77927	27205
293.80017	27219
293.82104	27267
293.84195	27572
293.86282	27850
293.88373	27880
293.9046	27781
293.92551	27777
293.94638	27875
293.96729	28060
293.98816	28218
294.00906	28353
294.02994	28410
294.05084	28428
294.07172	28275
294.09262	28375
294.11349	28291
294.1344	28230
294.15527	28229
294.17618	28281
294.19705	28426
294.21793	28431
294.23883	28328
294.2597	28387
294.28061	28428
294.30148	28513
294.32236	28520
294.34326	28630
294.36414	28794
294.38501	28597
294.40591	28524
294.42679	28484
294.44766	28572
294.46857	28744
294.48944	28723
294.51031	28985
294.53119	29166
294.55209	29241
294.57297	29156
294.59384	28951
294.61472	28842
294.63562	28793
294.65649	28951
294.67737	28880
294.69824	29228
294.71915	29369
294.74002	29400
294.76089	29398
294.78177	29304
294.80264	29316
294.82352	29314
294.84442	29286
294.8653	29396
294.88617	29475
294.90704	29522
294.92792	29539
294.94879	29298
294.96967	29165
294.99054	29094
295.01144	29247
295.03232	29665
295.05319	29728
295.07407	29693
295.09494	29442
295.11581	29316
295.13669	29290
295.15756	29489
295.17844	29642
295.19931	30009
295.22018	30220
295.24106	30375
295.26193	30272
295.28281	30287
295.30368	30399
295.32455	30408
295.34543	30543
295.3663	30662
295.38718	30664
295.40802	30465
295.42889	30614
295.44977	30626
295.47064	30567
295.49152	30487
295.51239	30299
295.53326	30263
295.55414	30330
295.57501	30412
295.59586	30299
295.61673	30436
295.6376	30603
295.65848	30710
295.67935	30862
295.7002	31142
295.72107	31112
295.74194	30821
295.76282	30934
295.78369	31148
295.80453	31009
295.82541	30918
295.84628	30827
295.86716	31050
295.888	31052
295.90887	30933
295.92975	30759
295.95059	30891
295.97147	30857
295.99234	30949
296.01318	30908
296.03406	30977
296.05493	30784
296.07578	30940
296.09665	30835
296.11752	30981
296.13837	31232
296.15924	31341
296.18008	31297
296.20096	31357
296.22183	31381
296.24268	31188
296.26355	31207
296.28439	31188
296.30527	31301
296.32611	31406
296.34698	31407
296.36786	31476
296.3887	31337
296.40958	31337
296.43042	31529
296.45129	31743
296.47214	31901
296.49298	32037
296.51385	32060
296.5347	31911
296.55557	31837
296.57642	31990
296.59729	32289
296.61813	32412
296.63901	32625
296.65985	32711
296.68069	32752
296.70157	32827
296.72241	32816
296.74326	32897
296.76413	32867
296.78497	33090
296.80585	32978
296.82669	32848
296.84753	32899
296.86841	33134
296.88925	32943
296.9101	32716
296.93094	32501
296.95181	32612
296.97266	32944
296.9935	33115
297.01434	33185
297.03522	33174
297.05606	33064
297.0769	33022
297.09775	33292
297.11862	33385
297.13947	33376
297.16031	33365
297.18115	33656
297.202	33616
297.22287	33553
297.24371	33563
297.26456	33566
297.2854	33616
297.30624	33289
297.32709	33233
297.34793	33411
297.3688	33511
297.38965	33469
297.41049	33577
297.43134	33408
297.45218	33433
297.47302	33318
297.49387	33315
297.51471	33266
297.53555	33428
297.5564	33320
297.57724	33528
297.59808	33410
297.61893	33503
297.63977	33382
297.66061	33507
297.68146	33476
297.7023	33582
297.72314	33562
297.74399	33740
297.76483	33904
297.78568	33852
297.80652	34156
297.82736	34153
297.84821	34362
297.86905	34444
297.88986	34633
297.91071	34570
297.93155	34541
297.95239	34336
297.97324	34356
297.99408	34502
298.01492	34608
298.03574	34696
298.05658	34744
298.07742	34721
298.09827	34807
298.11911	35077
298.13992	35342
298.16077	35478
298.18161	35348
298.20245	35313
298.22327	35530
298.24411	35438
298.26495	35660
298.2858	35659
298.30661	35963
298.32745	35991
298.3483	35654
298.36911	35551
298.38995	35778
298.4108	35648
298.43161	35907
298.45245	35855
298.4733	35831
298.49411	36064
298.51495	36062
298.5358	36252
298.55661	36460
298.57745	36598
298.59827	36487
298.61911	36279
298.63995	36211
298.66077	36206
298.68161	35958
298.70242	35981
298.72327	36109
298.74408	36214
298.76492	36109
298.78574	36479
298.80658	36543
298.82739	36779
298.84824	36533
298.86905	36871
298.88989	36302
298.91071	36530
298.93155	36283
298.95236	36396
298.97321	36267
298.99402	36299
299.01483	36509
299.03568	36646
299.05649	36504
299.07733	36722
299.09814	36578
299.11896	36707
299.1398	36825
299.16061	36859
299.18143	37122
299.20227	37472
299.22308	37544
299.2439	37523
299.26474	37390
299.28555	37669
299.30637	37835
299.32721	38018
299.34802	38056
299.36884	38193
299.38965	37911
299.41049	37825
299.4313	37475
299.45212	37114
299.47293	37202
299.49377	37501
299.51459	37830
299.5354	38066
299.55621	38259
299.57703	38383
299.59787	38420
299.61868	38354
299.6395	38792
299.66031	38653
299.68112	38867
299.70193	39143
299.72275	39066
299.74356	38864
299.7644	39196
299.78522	38869
299.80603	38923
299.82684	38906
299.84766	38804
299.86847	39078
299.88928	39322
299.9101	39212
299.93091	39287
299.95172	38875
299.97253	39416
299.99335	39567
300.01416	39312
300.03497	39674
300.05579	39467
300.0766	39366
300.09741	39339
300.11823	39609
300.13904	39684
300.15985	39751
300.18066	39737
300.20148	40001
300.22226	40229
300.24307	40139
300.26389	39794
300.2847	39881
300.30551	39815
300.32632	39967
300.34714	40154
300.36792	40102
300.38873	40063
300.40955	40284
300.43036	40358
300.45117	40036
300.47198	40231
300.49277	40270
300.51358	40084
300.53439	40430
300.55521	40257
300.57599	40570
300.5968	40388
300.61761	40596
300.63843	40217
300.65921	40285
300.68002	40384
300.70084	40402
300.72162	40559
300.74243	40340
300.76324	40553
300.78403	40132
300.80484	40446
300.82565	40460
300.84644	40617
300.86725	40742
300.88806	41018
300.90884	40843
300.92966	41092
300.95044	40993
300.97125	41249
300.99207	41389
301.01285	41379
301.03366	41420
301.05444	41502
301.07526	41244
301.09604	41532
301.11685	41252
301.13763	41372
301.15845	41486
301.17923	40885
301.20004	41273
301.22083	40840
301.24164	41165
301.26242	41183
301.28323	41119
301.30402	41290
301.3248	41538
301.34561	41552
301.36639	41708
301.38721	41408
301.40799	40427
301.42877	38335
