Date and Time:                Wed May 25 12:25:20.000 2022
Software Version:             4.31.30023.0
Temperature (C):              -40
Model:                        DU940P_BU2
Data Type:                    Counts
Acquisition Mode:             Single Scan
Trigger Mode:                 Internal
Exposure Time (secs):         0.4
Readout Mode:                 Full Vertical Binning
Horizontal binning:           1
Extended Dynamic Range:       off
Horizontally flipped:         false
Vertical Shift Speed (usecs): 14.51
Pixel Readout Rate (MHz):     3
Baseline Clamp:               ON
Clock Amplitude:              Normal
Output Amplifier:             High Capacity
Serial Number:                23634
Pre-Amplifier Gain:           1.000000
Spurious Noise Filter Mode:   No Filter
Photon counted:               false
Data Averaging Filter Mode:   No Filter
SR500i:
Serial Number:                
Wavelength (nm):              272
Grating Groove Density (l/mm):2400
Grating Blaze:                BH
Output Flipper Port:          Direct
Accessory Output Port 1:      Off
Accessory Output Port 2:      Off
Accessory Output Port 3:      Off
Accessory Input Port:         On



262.02127	25997
262.0311	24885
262.04095	25052
262.05078	25130
262.06061	25147
262.07043	24934
262.08026	24755
262.09009	24876
262.09991	25119
262.10974	25083
262.11957	24994
262.12939	24953
262.13922	24979
262.14905	24960
262.15887	24903
262.1687	24714
262.17853	24896
262.18835	25236
262.19818	25338
262.20801	25159
262.21783	25022
262.22766	24859
262.23749	24871
262.24731	24785
262.25714	24635
262.26697	24574
262.27676	24772
262.28659	24649
262.29642	24583
262.30624	24570
262.31607	24647
262.3259	24668
262.33572	24721
262.34555	24763
262.35538	24781
262.3652	24502
262.37503	24499
262.38486	24649
262.39465	24526
262.40448	24429
262.41431	24439
262.42413	24569
262.43396	24940
262.44379	24915
262.45361	24827
262.46344	24778
262.47324	24676
262.48306	24749
262.49289	24791
262.50272	24896
262.51254	25177
262.52237	25274
262.53217	25252
262.54199	25202
262.55182	25142
262.56165	25235
262.57147	25193
262.5813	25233
262.59109	25324
262.60092	25320
262.61075	25197
262.62057	25146
262.63037	25213
262.6402	25183
262.65002	25062
262.65985	24972
262.66968	25052
262.67947	25003
262.6893	24938
262.69913	24923
262.70895	25036
262.71875	25020
262.72858	25109
262.7384	25242
262.7482	25353
262.75803	25232
262.76785	25224
262.77768	25217
262.78748	25177
262.7973	25110
262.80713	25070
262.81693	25048
262.82675	25050
262.83658	24878
262.84637	24846
262.8562	24814
262.86603	24951
262.87585	24948
262.88565	24900
262.89548	24906
262.90527	24797
262.9151	24837
262.92493	24833
262.93472	24973
262.94455	25177
262.95438	25301
262.96417	25265
262.974	25257
262.98383	25173
262.99362	25178
263.00345	25151
263.01324	25231
263.02307	25231
263.0329	25234
263.04269	25133
263.05252	25071
263.06232	24989
263.07214	24987
263.08194	25005
263.09177	25199
263.10159	25452
263.11139	25519
263.12122	25482
263.13101	25364
263.14084	25317
263.15063	25481
263.16046	25598
263.17026	25662
263.18008	25940
263.18988	25897
263.19971	25873
263.2095	25775
263.21933	25912
263.22913	25845
263.23895	25799
263.24875	25821
263.25858	25818
263.26837	25856
263.2782	25661
263.28799	25786
263.29782	25744
263.30762	25749
263.31744	25534
263.32724	25437
263.33707	25462
263.34686	25506
263.35669	25586
263.36649	25521
263.37628	25476
263.38611	25517
263.3959	25642
263.40573	25849
263.41553	25910
263.42535	25859
263.43515	25944
263.44495	25976
263.45477	25872
263.46457	25808
263.4744	25809
263.48419	25772
263.49399	25854
263.50381	25603
263.51361	25499
263.52341	25604
263.53323	25739
263.54303	25667
263.55283	25717
263.56265	25794
263.57245	25727
263.58228	25665
263.59207	25585
263.60187	25670
263.61169	25792
263.62149	25909
263.63129	25974
263.64108	26079
263.65091	25958
263.66071	25819
263.6705	25787
263.68033	25738
263.69012	25831
263.69992	25868
263.70972	25994
263.71954	25955
263.72934	25917
263.73914	25804
263.74896	25831
263.75876	26063
263.76855	26162
263.77835	26171
263.78818	26039
263.79797	26058
263.80777	26004
263.81757	26064
263.82736	26144
263.83719	26276
263.84698	26486
263.85678	26519
263.86658	26363
263.87637	26369
263.8862	26622
263.896	26696
263.90579	26549
263.91559	26617
263.92538	26575
263.93521	26607
263.94501	26594
263.9548	26594
263.9646	26641
263.9744	26551
263.98419	26416
263.99399	26290
264.00381	26307
264.01361	26404
264.02341	26563
264.0332	26763
264.043	26520
264.0528	26309
264.06259	26461
264.07239	26705
264.08221	26658
264.09201	26776
264.10181	26747
264.1116	26799
264.1214	26840
264.1312	26683
264.14099	26630
264.15079	26617
264.16058	26701
264.17038	26549
264.18018	26449
264.18997	26675
264.19977	26638
264.20956	26760
264.21936	26794
264.22916	26844
264.23898	26714
264.24878	26495
264.25858	26287
264.26837	26185
264.27817	26297
264.28796	26220
264.29776	26417
264.30756	26608
264.31735	26669
264.32715	26555
264.33694	26441
264.34671	26526
264.35651	26397
264.3663	26516
264.3761	26663
264.38589	26814
264.39569	26860
264.40549	26912
264.41528	26943
264.42508	27051
264.43488	27205
264.44467	27270
264.45447	27166
264.46426	27269
264.47406	27125
264.48386	27070
264.49365	26955
264.50342	26954
264.51321	26910
264.52301	26985
264.53281	26953
264.5426	27030
264.5524	27181
264.56219	27254
264.57199	27279
264.58176	27272
264.59155	27256
264.60135	27399
264.61115	27459
264.62094	27504
264.63074	27608
264.64053	27507
264.6503	27450
264.6601	27233
264.66989	27346
264.67969	27232
264.68948	27388
264.69925	27441
264.70905	27502
264.71884	27529
264.72864	27441
264.73843	27474
264.7482	27539
264.758	27551
264.76779	27551
264.77759	27699
264.78735	27652
264.79715	27631
264.80695	27478
264.81674	27391
264.82651	27474
264.8363	27452
264.8461	27512
264.8559	27704
264.86566	27821
264.87546	27781
264.88525	27484
264.89505	27232
264.90482	27263
264.91461	27291
264.92441	27334
264.93417	27350
264.94397	27486
264.95377	27388
264.96353	27362
264.97333	27365
264.98312	27453
264.99289	27468
265.00269	27369
265.01248	27394
265.02225	27490
265.03204	27454
265.04184	27415
265.05161	27237
265.0614	27157
265.0712	27035
265.08096	26965
265.09076	27261
265.10052	27411
265.11032	27480
265.12012	27471
265.12988	27373
265.13968	27178
265.14944	27327
265.15924	27509
265.16904	27668
265.1788	27852
265.1886	27892
265.19836	27788
265.20816	27824
265.21793	27835
265.22772	27740
265.23749	27834
265.24728	27736
265.25708	27830
265.26685	27764
265.27664	27691
265.28641	27665
265.2962	27607
265.30597	27578
265.31577	27563
265.32553	27520
265.33533	27584
265.34509	27443
265.35489	27273
265.36465	27441
265.37445	27476
265.38422	27622
265.39401	27650
265.40378	27672
265.41354	27822
265.42334	27708
265.43311	27639
265.4429	27701
265.45267	27609
265.46246	27629
265.47223	27580
265.48203	27495
265.49179	27328
265.50156	27340
265.51135	27121
265.52112	27274
265.53091	27293
265.54068	27154
265.55045	27029
265.56024	26980
265.57001	26864
265.5798	26846
265.58957	26813
265.59933	26892
265.60913	27104
265.6189	27244
265.62866	27255
265.63846	27230
265.64822	27145
265.65799	26982
265.66779	26787
265.67755	26796
265.68732	26867
265.69711	26864
265.70688	26861
265.71664	26767
265.72644	26674
265.73621	26645
265.74597	26568
265.75577	26755
265.76553	26985
265.7753	27193
265.78506	27184
265.79486	27066
265.80463	26842
265.81439	27001
265.82419	27027
265.83395	27213
265.84372	27366
265.85349	27478
265.86325	27320
265.87305	27307
265.88281	27438
265.89258	27511
265.90234	27434
265.91214	27382
265.92191	27397
265.93167	27539
265.94144	27397
265.9512	27339
265.961	27190
265.97076	27178
265.98053	27191
265.9903	27150
266.00006	27113
266.00986	27201
266.01962	27295
266.02939	27293
266.03915	27072
266.04892	27054
266.05869	27380
266.06845	27478
266.07825	27520
266.08801	27591
266.09778	27632
266.10754	27659
266.11731	27486
266.12708	27417
266.13684	27477
266.14661	27528
266.15637	27499
266.16617	27287
266.17593	27314
266.1857	27291
266.19547	27332
266.20523	27396
266.215	27548
266.22476	27677
266.23453	27659
266.24429	27545
266.25406	27547
266.26382	27578
266.27359	27723
266.28336	27847
266.29312	27855
266.30289	27915
266.31265	27839
266.32242	27731
266.33218	27610
266.34195	27681
266.35172	27817
266.36148	27832
266.37125	27940
266.38101	27958
266.39078	27925
266.40054	27708
266.41031	27710
266.42007	27919
266.42984	28077
266.43961	28100
266.44937	28062
266.45914	28075
266.4689	28059
266.47867	28002
266.48843	28006
266.4982	28122
266.50797	28316
266.51773	28422
266.5275	28370
266.53726	28462
266.547	28561
266.55676	28612
266.56653	28655
266.57629	28610
266.58606	28613
266.59583	28410
266.60559	28343
266.61536	28423
266.62509	28450
266.63486	28462
266.64462	28240
266.65439	28173
266.66415	28117
266.67392	28219
266.68369	28354
266.69342	28626
266.70319	28540
266.71295	28324
266.72272	28319
266.73248	28416
266.74222	28525
266.75198	28493
266.76175	28640
266.77151	28664
266.78128	28626
266.79102	28423
266.80078	28361
266.81055	28355
266.82031	28475
266.83008	28227
266.83981	28130
266.84958	28376
266.85934	28571
266.86911	28491
266.87885	28538
266.88861	28628
266.89838	28586
266.90811	28306
266.91788	28086
266.92764	27948
266.93741	27959
266.94714	27914
266.95691	27984
266.96667	28143
266.97641	28369
266.98618	28207
266.99594	28038
267.00568	28063
267.01544	27980
267.02521	27987
267.03494	28164
267.04471	28390
267.05447	28461
267.06421	28495
267.07397	28361
267.08374	28568
267.09348	28609
267.10324	28706
267.11301	28710
267.12274	28783
267.13251	28656
267.14224	28617
267.15201	28529
267.16177	28560
267.17151	28705
267.18127	28682
267.19101	28666
267.20078	28798
267.21054	28946
267.22028	28959
267.23004	28750
267.23978	28857
267.24954	28808
267.25928	28974
267.26904	29036
267.27878	29154
267.28854	29248
267.29828	29168
267.30804	29044
267.31781	28954
267.32755	28831
267.33731	28800
267.34705	28951
267.35681	29195
267.36655	29148
267.37631	28991
267.38605	29046
267.39578	28993
267.40555	29148
267.41528	29115
267.42505	28997
267.43478	28826
267.44455	28800
267.45428	28903
267.46405	28803
267.47379	28811
267.48355	28883
267.49329	28821
267.50302	28851
267.51279	28992
267.52252	29144
267.53229	29033
267.54202	28930
267.55179	28703
267.56152	28616
267.57126	28702
267.58102	28659
267.59076	28540
267.60049	28603
267.61026	28518
267.62	28581
267.62976	28711
267.6395	28864
267.64923	29002
267.659	28932
267.66873	28779
267.67847	28625
267.68823	28652
267.69797	28761
267.7077	28782
267.71747	28776
267.7272	28624
267.73694	28633
267.7467	28670
267.75644	28953
267.76617	29078
267.77591	29033
267.78568	28946
267.79541	28946
267.80515	28957
267.81491	29104
267.82465	29113
267.83438	29154
267.84412	29125
267.85388	29074
267.86362	29234
267.87335	29227
267.88309	29148
267.89285	29107
267.90259	29278
267.91232	29206
267.92206	29310
267.93179	29263
267.94156	29263
267.95129	29352
267.96103	29357
267.97076	29267
267.9805	29204
267.99026	29120
268	28981
268.00974	28861
268.01947	28882
268.02921	28942
268.03894	28961
268.04871	29173
268.05844	29293
268.06818	29224
268.07791	29194
268.08765	29214
268.09738	29349
268.10712	29448
268.11685	29436
268.12662	29421
268.13635	29368
268.14609	29476
268.15582	29385
268.16556	29277
268.17529	29454
268.18503	29373
268.19476	29266
268.2045	29166
268.21423	29002
268.22397	28858
268.2337	28983
268.24347	28977
268.2532	29268
268.26294	29423
268.27267	29419
268.28241	29540
268.29214	29505
268.30188	29433
268.31161	29376
268.32135	29302
268.33109	29400
268.34082	29424
268.35056	29422
268.36029	29333
268.37003	29158
268.37976	28962
268.3895	29038
268.39923	29344
268.40897	29520
268.4187	29613
268.42844	29550
268.43817	29416
268.44788	29271
268.45761	29192
268.46735	29267
268.47708	29403
268.48682	29630
268.49655	29767
268.50629	29672
268.51602	29510
268.52576	29621
268.53549	29770
268.54523	29798
268.55496	29794
268.56467	29858
268.5744	29754
268.58414	29709
268.59387	29638
268.60361	29638
268.61334	29605
268.62308	29451
268.63281	29373
268.64252	29327
268.65225	29329
268.66199	29429
268.67172	29470
268.68146	29601
268.69119	29546
268.7009	29529
268.71063	29696
268.72037	29975
268.7301	29913
268.73984	29771
268.74954	29765
268.75928	29949
268.76901	29798
268.77875	29630
268.78848	29680
268.79819	29703
268.80792	29629
268.81766	29413
268.82739	29343
268.8371	29435
268.84683	29484
268.85657	29438
268.8663	29616
268.87601	29661
268.88574	29472
268.89548	29376
268.90518	29246
268.91492	29554
268.92465	29604
268.93439	29740
268.94409	29652
268.95383	29616
268.96356	29645
268.97327	29530
268.983	29465
268.99274	29506
269.00244	29504
269.01218	29615
269.02191	29676
269.03162	29823
269.04135	29571
269.05109	29590
269.06079	29704
269.07053	29943
269.08023	30027
269.08997	29991
269.0997	30089
269.10941	30043
269.11914	29909
269.12885	29848
269.13858	29861
269.14832	30119
269.15802	30430
269.16776	30372
269.17746	30507
269.18719	30518
269.1969	30699
269.20663	30756
269.21637	30755
269.22607	30680
269.23581	30597
269.24551	30419
269.25525	30444
269.26495	30539
269.27469	30414
269.28439	30295
269.29413	30068
269.30383	30096
269.31357	30189
269.32327	30316
269.33301	30568
269.34271	30632
269.35245	30353
269.36215	30224
269.37189	30372
269.38159	30501
269.39133	30456
269.40103	30404
269.41077	30541
269.42047	30598
269.43021	30560
269.43991	30362
269.44962	30276
269.45935	30341
269.46906	30300
269.47879	30246
269.48849	30310
269.4982	30424
269.50793	30541
269.51764	30572
269.52737	30668
269.53708	30739
269.54678	30657
269.55652	30455
269.56622	30334
269.57596	30148
269.58566	29967
269.59537	29953
269.6051	30199
269.61481	30459
269.62451	30445
269.63425	30193
269.64395	30015
269.65366	30035
269.66339	30097
269.6731	30179
269.6828	30470
269.69254	30629
269.70224	30549
269.71194	30466
269.72165	30533
269.73138	30602
269.74109	30659
269.75079	30665
269.76053	30699
269.77023	30653
269.77994	30674
269.78964	30514
269.79938	30379
269.80908	30379
269.81879	30264
269.82849	30208
269.83823	30501
269.84793	30654
269.85764	30837
269.86734	30814
269.87704	30645
269.88678	30595
269.89648	30803
269.90619	30955
269.91589	31059
269.9256	31245
269.93533	31279
269.94504	31168
269.95474	31009
269.96445	31046
269.97415	31034
269.98386	30977
269.99359	31130
270.0033	31237
270.013	31187
270.02271	31159
270.03241	31052
270.04211	30987
270.05182	30957
270.06152	30968
270.07126	30898
270.08096	31038
270.09067	31028
270.10037	30879
270.11008	30822
270.11978	30784
270.12949	31039
270.13919	31029
270.1489	31003
270.1586	31133
270.1683	31122
270.17801	31109
270.18771	30964
270.19742	30720
270.20715	30408
270.21686	30225
270.22656	30080
270.23627	30148
270.24597	29886
270.25568	29718
270.26538	29850
270.27509	29833
270.28479	29823
270.29449	29900
270.3042	29757
270.3139	29731
270.32361	29731
270.33331	29860
270.34299	30129
270.35269	30396
270.3624	30678
270.3721	30492
270.38181	30210
270.39151	30321
270.40121	30315
270.41092	30336
270.42062	30357
270.43033	30375
270.44003	30364
270.44974	30215
270.45944	30106
270.46915	29897
270.47882	29876
270.48853	29983
270.49823	30029
270.50793	30374
270.51764	30529
270.52734	30427
270.53705	30148
270.54675	30260
270.55643	30338
270.56613	30391
270.57584	30247
270.58554	30536
270.59525	30828
270.60495	30681
270.61462	30587
270.62433	30637
270.63403	30555
270.64374	30613
270.65344	30519
270.66312	30616
270.67282	30591
270.68253	30386
270.69223	30326
270.70193	30445
270.71161	30368
270.72131	30517
270.73102	30527
270.74072	30677
270.7504	30712
270.7601	30601
270.76981	30459
270.77951	30648
270.78918	30894
270.79889	30801
270.80859	30973
270.8183	31173
270.82797	31250
270.83768	31392
270.84738	31209
270.85706	31087
270.86676	30822
270.87646	30788
270.88614	30949
270.89584	31146
270.90555	31383
270.91522	31497
270.92493	31553
270.93463	31548
270.94431	31571
270.95401	31340
270.96371	31415
270.97339	31468
270.98309	31446
270.99277	31488
271.00247	31353
271.01218	31285
271.02185	31110
271.03156	31032
271.04126	31263
271.05093	31592
271.06064	31659
271.07031	31520
271.08002	31389
271.08969	31352
271.0994	31404
271.1091	31651
271.11877	31748
271.12848	31931
271.13815	32112
271.14786	32112
271.15753	32088
271.16724	32062
271.17691	32002
271.18661	31942
271.19629	32152
271.20599	32168
271.21567	32104
271.22537	32080
271.23505	32051
271.24475	32231
271.25443	32010
271.26413	31968
271.2738	31622
271.28351	31654
271.29318	31769
271.30289	31796
271.31256	31963
271.32227	31917
271.33194	31876
271.34161	32009
271.35132	32134
271.36099	32237
271.3707	32111
271.38037	32331
271.39008	32238
271.39975	32299
271.40942	32314
271.41913	32369
271.4288	32261
271.43851	32243
271.44818	32045
271.45786	31875
271.46756	31993
271.47723	31930
271.48691	31967
271.49661	31794
271.50629	31805
271.51596	31741
271.52567	31573
271.53534	31466
271.54501	31512
271.55472	31572
271.56439	31568
271.57407	31584
271.58377	31574
271.59344	31520
271.60312	31478
271.61282	31398
271.6225	31484
271.63217	31417
271.64185	31343
271.65155	31400
271.66122	31552
271.6709	31422
271.68057	31462
271.69028	31423
271.69995	31578
271.70963	31811
271.7193	31764
271.729	31723
271.73868	31764
271.74835	31635
271.75803	31575
271.7677	31502
271.7774	31752
271.78708	32065
271.79675	32200
271.80643	32235
271.8161	32472
271.82581	32615
271.83548	32675
271.84515	32613
271.85483	32577
271.8645	32584
271.87418	32497
271.88388	32438
271.89355	32439
271.90323	32450
271.9129	32471
271.92258	32356
271.93225	32340
271.94193	32529
271.9516	32722
271.9613	32569
271.97098	32515
271.98065	32524
271.99033	32254
272	32146
272.00967	32328
272.01935	32651
272.02902	32391
272.0387	32514
272.04837	32665
272.05804	32588
272.06772	32574
272.07739	32288
272.08707	32427
272.09674	32511
272.10641	32269
272.11609	32330
272.12576	32374
272.13544	32483
272.14511	32714
272.15479	32753
272.16446	32890
272.17413	32874
272.18381	32649
272.19348	32421
272.20316	32281
272.21283	32328
272.2225	32286
272.23218	32382
272.24185	32571
272.25153	32700
272.2612	32554
272.27087	32470
272.28055	32288
272.29022	32328
272.2999	32412
272.30957	32552
272.31924	32823
272.32892	33104
272.33856	32937
272.34824	32797
272.35791	33048
272.36758	33161
272.37726	33244
272.38693	33175
272.39661	33145
272.40628	33229
272.41592	33163
272.4256	32964
272.43527	32906
272.44495	32963
272.45462	32971
272.46429	32880
272.47394	32982
272.48361	33251
272.49329	33467
272.50296	33292
272.51263	33231
272.52228	33271
272.53195	33432
272.54163	33424
272.5513	33569
272.56097	33760
272.57062	33850
272.58029	33809
272.58997	33612
272.59964	33617
272.60928	33460
272.61896	33424
272.62863	33648
272.63831	33661
272.64795	33526
272.65762	33455
272.6673	33588
272.67697	33554
272.68661	33629
272.69629	33558
272.70596	33521
272.71561	33553
272.72528	33400
272.73495	33299
272.7446	33045
272.75427	32989
272.76395	33186
272.77359	33181
272.78326	33294
272.79294	33650
272.80258	33605
272.81226	33515
272.82193	33497
272.83157	33211
272.84125	33309
272.85089	33050
272.86057	32935
272.87024	32977
272.87988	32632
272.88956	32691
272.89923	32823
272.90887	33021
272.91855	32963
272.92819	32817
272.93787	32757
272.94751	32821
272.95718	32750
272.96686	32902
272.9765	33156
272.98618	33567
272.99582	33752
273.00549	33591
273.01514	33686
273.02481	33742
273.03445	33682
273.04413	33629
273.05377	33509
273.06345	33590
273.07309	33533
273.08276	33360
273.09241	33285
273.10208	33124
273.11172	33191
273.1214	33171
273.13104	33411
273.14072	33678
273.15036	33696
273.16003	33614
273.16968	33620
273.17932	33612
273.189	33793
273.19864	33981
273.20831	34086
273.21796	34239
273.2276	34343
273.23727	34251
273.24692	34205
273.25659	34238
273.26624	34221
273.27588	34098
273.28555	34232
273.2952	34102
273.30487	33987
273.31451	34281
273.32416	33995
273.33383	34145
273.34348	34104
273.35312	33902
273.36279	33972
273.37244	33916
273.38208	33983
273.39175	33805
273.4014	33776
273.41104	34000
273.42072	34058
273.43036	34430
273.44	34407
273.44968	34602
273.45932	34764
273.46896	34503
273.47861	34584
273.48828	34419
273.49792	34482
273.50757	34547
273.51721	34559
273.52689	34541
273.53653	34643
273.54617	34531
273.55582	34599
273.56549	34422
273.57513	34485
273.58478	34338
273.59442	34261
273.60406	34310
273.61374	34296
273.62338	34387
273.63303	34133
273.64267	33949
273.65231	33844
273.66199	33741
273.67163	34165
273.68127	34285
273.69092	34345
273.70056	34307
273.71021	34141
273.71985	33921
273.72952	34078
273.73917	34171
273.74881	34440
273.75845	34828
273.7681	34907
273.77774	34843
273.78738	34740
273.79703	35022
273.80667	34815
273.81635	34947
273.82599	34966
273.83563	35089
273.84528	35067
273.85492	34788
273.86456	34980
273.87421	34898
273.88385	34702
273.89349	34780
273.90314	34616
273.91278	34483
273.92242	34486
273.93207	34447
273.94171	34640
273.95135	34487
273.961	34371
273.97064	34602
273.98029	34830
273.98993	34858
273.99957	34835
274.00922	34653
274.01886	34805
274.0285	34840
274.03815	34689
274.04779	34615
274.05743	34726
274.06708	34713
274.07672	34517
274.08636	34256
274.09601	34363
274.10565	34467
274.1153	34663
274.12491	34828
274.13455	34777
274.1442	34691
274.15384	34318
274.16348	34243
274.17313	34131
274.18277	34325
274.19241	34650
274.20206	34676
274.21167	34822
274.22131	34648
274.23096	34497
274.2406	34381
274.25024	34534
274.25989	34198
274.26953	34451
274.27914	34683
274.28879	34652
274.29843	34554
274.30807	34336
274.31772	34692
274.32733	34666
274.33698	34860
274.34662	34843
274.35626	34997
274.36591	34941
274.37552	34857
274.38516	34804
274.39481	34732
274.40445	34772
274.41406	35244
274.42371	35137
274.43335	35145
274.44299	35419
274.45261	35530
274.46225	35488
274.47189	35423
274.48154	35371
274.49115	35484
274.50079	35377
274.51044	35184
274.52005	35460
274.52969	35397
274.53934	35207
274.54895	35011
274.55859	34916
274.56824	34650
274.57785	35099
274.58749	35304
274.59714	35332
274.60675	35280
274.61639	35056
274.62604	35238
274.63565	35427
274.64529	35285
274.65491	35392
274.66455	35322
274.67419	35444
274.68381	35348
274.69345	35381
274.70306	35176
274.71271	35385
274.72235	35341
274.73196	35286
274.74161	35232
274.75122	35534
274.76086	35496
274.77048	35554
274.78012	35340
274.78976	35591
274.79938	35414
274.80902	35124
274.81863	34950
274.82828	34779
274.83789	34742
274.84753	34823
274.85715	34807
274.86679	35002
274.8764	35053
274.88605	34987
274.89566	34765
274.9053	34791
274.91492	34813
274.92456	34915
274.93417	35266
274.94379	35522
274.95343	35422
274.96304	35238
274.97269	35335
274.9823	35260
274.99194	35402
275.00156	35680
275.01117	35582
275.02081	35622
275.03043	35598
275.04007	35293
275.04968	35303
275.0593	35165
275.06894	35026
275.07855	35319
275.0882	35407
275.09781	35663
275.10742	35922
275.11707	35850
275.12668	35897
275.13629	35714
275.14594	35676
275.15555	35933
275.16516	35986
275.1748	36090
275.18442	36435
275.19403	36103
275.20367	36070
275.21329	36112
275.2229	35990
275.23254	36056
275.24216	36112
275.25177	36366
275.26138	36260
275.27103	36183
275.28064	36069
275.29025	35782
275.29987	35883
275.30951	36047
275.31912	36113
275.32874	35836
275.33835	35831
275.34799	35704
275.3576	35850
275.36722	35768
275.37683	36110
275.38644	36049
275.39609	36134
275.4057	36360
275.41531	36298
275.42493	36283
275.43454	36339
275.44418	36029
275.4538	35800
275.46341	35732
275.47302	35557
275.48264	35282
275.49225	35209
275.50186	35195
275.51151	35129
275.52112	35325
275.53073	35143
275.54034	35640
275.54996	35228
275.55957	35258
275.56918	35247
275.5788	35341
275.58841	35621
275.59805	36020
275.60767	36189
275.61728	36383
275.62689	36148
275.63651	36141
275.64612	36171
275.65573	36266
275.66534	36126
275.67496	36261
275.68457	36351
275.69418	36078
275.7038	35955
275.71341	35610
275.72302	35497
275.73264	35612
275.74225	35794
275.75186	36239
275.76147	36470
275.77109	36537
275.7807	36187
275.79031	36174
275.79993	36281
275.80954	36487
275.81915	36784
275.82877	37173
275.83838	36966
275.84799	37063
275.8576	37131
275.86722	36959
275.87683	37016
275.88641	36914
275.89603	37089
275.90564	37067
275.91525	36870
275.92487	36940
275.93448	36719
275.94409	36713
275.9537	36859
275.96332	36762
275.9729	36668
275.98251	36547
275.99213	36710
276.00174	36542
276.01135	36412
276.02097	36659
276.03058	36678
276.04016	36905
276.04977	37184
276.05939	37323
276.069	37289
276.07861	37279
276.0882	37273
276.09781	37137
276.10742	37035
276.11703	36945
276.12665	36834
276.13623	37131
276.14584	36978
276.15546	37042
276.16507	36901
276.17465	37176
276.18427	36912
276.19388	36643
276.20349	36412
276.21307	36734
276.22269	36634
276.2323	36553
276.24191	36711
276.2515	36470
276.26111	36442
276.27072	36438
276.2803	36119
276.28992	36392
276.29953	36840
276.30911	36712
276.31873	36781
276.32834	36472
276.33792	36489
276.34753	36405
276.35715	36670
276.36673	36747
276.37634	36977
276.38596	37257
276.39554	37022
276.40515	37128
276.41473	37236
276.42435	37238
276.43396	37135
276.44354	37298
276.45316	37363
276.46274	37069
276.47235	37195
276.48196	36820
276.49155	37156
276.50116	36830
276.51074	36840
276.52036	36755
276.52994	36623
276.53955	36783
276.54913	36853
276.55875	36790
276.56836	36847
276.57794	36920
276.58755	37074
276.59714	37548
276.60675	37599
276.61633	37345
276.62595	37337
276.63553	37484
276.64514	37397
276.65472	36926
276.66431	37021
276.67392	36943
276.6835	37326
276.69312	36984
276.7027	36866
276.71231	36963
276.72189	37262
276.73151	37444
276.74109	37391
276.75067	37548
276.76028	37535
276.76987	37305
276.77948	37214
276.78906	37051
276.79865	37192
276.80826	37373
276.81784	37478
276.82745	37247
276.83704	37519
276.84662	37307
276.85623	37227
276.86581	37244
276.8754	37165
276.88501	37262
276.89459	37461
276.90417	37531
276.91379	37417
276.92337	37590
276.93295	37325
276.94257	37636
276.95215	37817
276.96173	37942
276.97134	37904
276.98093	37955
276.99051	37805
277.00009	37514
277.0097	37715
277.01929	37984
277.02887	38146
277.03845	38253
277.04807	38317
277.05765	38849
277.06723	38559
277.07681	38925
277.08643	38554
277.09601	38632
277.10559	38612
277.11517	38672
277.12476	38543
277.13437	38805
277.14395	38725
277.15353	38625
277.16312	38324
277.1727	38286
277.18228	38587
277.19189	38571
277.20148	38690
277.21106	38960
277.22064	38842
277.23022	38572
277.23981	38825
277.24942	38670
277.259	38748
277.26859	38956
277.27817	38685
277.28775	38867
277.29733	38770
277.30692	38921
277.3165	38619
277.32608	38822
277.33566	38747
277.34525	38847
277.35486	38824
277.36444	38854
277.37402	39085
277.38361	38791
277.39319	39163
277.40277	38857
277.41235	38755
277.42194	38552
277.43152	38518
277.4411	38181
277.45068	38252
277.46027	38327
277.46985	38263
277.47943	38907
277.48901	38535
277.4986	38371
277.50818	38517
277.51776	38489
277.52734	38473
277.53693	38864
277.54651	38923
277.55609	39228
277.56567	39381
277.57526	39191
277.58481	39204
277.59439	39446
277.60397	39202
277.61356	39411
277.62314	39427
277.63272	39400
277.6423	39292
277.65189	39360
277.66147	38906
277.67105	39042
277.6806	39076
277.69019	38878
277.69977	39228
277.70935	39407
277.71893	39631
277.72852	39607
277.7381	39675
277.74765	39634
277.75723	39685
277.76682	40058
277.7764	39903
277.78598	40180
277.79556	40244
277.80511	40114
277.8147	40096
277.82428	39906
277.83386	40191
277.84341	39849
277.853	39913
277.86258	39874
277.87216	40216
277.88174	39944
277.8913	39876
277.90088	40086
277.91046	39873
277.92001	40165
277.9296	39905
277.93918	39879
277.94876	39715
277.95831	39745
277.9679	39526
277.97748	39770
277.98703	39679
277.99661	39793
278.0062	39884
278.01578	40035
278.02533	40228
278.03491	40165
278.04446	39820
278.05405	40014
278.06363	39516
278.07318	39728
278.08276	39309
278.09235	39396
278.1019	39164
278.11148	39271
278.12106	39034
278.13062	39205
278.1402	39138
278.14975	38883
278.15933	39078
278.16891	38843
278.17847	38963
278.18805	38960
278.1976	39425
278.20718	39971
278.21674	39746
278.22632	39997
278.2359	39688
278.24545	39708
278.25504	40023
278.26459	39647
278.27417	39967
278.28372	39883
278.2933	40046
278.30286	39494
278.31244	39439
278.32199	39149
278.33157	39365
278.34113	39158
278.35071	39433
278.36026	39799
278.36984	39956
278.37939	39879
278.38895	39823
278.39853	39552
278.40808	39858
278.41766	39898
278.42722	40224
278.4368	40248
278.44635	40516
278.45593	40295
278.46548	40450
278.47504	40121
278.48462	40339
278.49417	40242
278.50372	40349
278.51331	40217
278.52286	40390
278.53244	40260
278.54199	40065
278.55154	40285
278.56113	40208
278.57068	40020
278.58023	40018
278.58981	40176
278.59937	39877
278.60892	39956
278.6185	39968
278.62805	39797
278.6376	40113
278.64719	40229
278.65674	40477
278.66629	40181
278.67584	40436
278.68542	40320
278.69498	40524
278.70453	40349
278.71411	40378
278.72366	40298
278.73322	40493
278.74277	40529
278.75235	40434
278.7619	40830
278.77145	40613
278.78101	40430
278.79056	40496
278.80014	40459
278.80969	40202
278.81924	40304
278.8288	40341
278.83835	40175
278.84793	40204
278.85748	39802
278.86703	40168
278.87659	39927
278.88614	39992
278.89569	40117
278.90527	40245
278.91483	40228
278.92438	40104
278.93393	40102
278.94348	39861
278.95303	40010
278.96259	40130
278.97214	40161
278.98172	40445
278.99127	40832
279.00082	40485
279.01038	40613
279.01993	40819
279.02948	40737
279.03903	40759
279.04858	40746
279.05814	40877
279.06769	40535
279.07724	40657
279.08679	40657
279.09634	40808
279.1059	40384
279.11545	40585
279.125	40142
279.13455	40464
279.1441	40418
279.15366	40369
279.16321	40484
279.17276	40584
279.18231	40646
279.19186	40809
279.20142	40661
279.21097	41029
279.22052	40907
279.23007	40767
279.23962	40830
279.24918	40705
279.25873	40803
279.26828	40631
279.27783	40758
279.28738	40548
279.29694	40368
279.30649	40336
279.31601	40239
279.32556	40210
279.33511	40343
279.34467	40347
279.35422	40562
279.36377	40043
279.37332	39960
279.38287	40017
279.3924	39787
279.40195	40195
279.4115	40137
279.42105	39871
279.4306	40081
279.44016	40114
279.44968	40172
279.45923	40124
279.46878	39844
279.47833	40091
279.48788	40182
279.49741	39919
279.50696	40271
279.51651	40014
279.52606	39946
279.53561	40222
279.54514	40145
279.55469	40378
279.56424	40558
279.57379	40463
279.58331	40433
279.59286	40456
279.60242	40346
279.61194	40551
279.62149	40634
279.63104	40713
279.64059	40778
279.65012	40747
279.65967	40982
279.66922	40877
279.67874	41062
279.68829	40884
279.69785	41196
279.70737	41321
279.71692	41026
279.72647	41315
279.73599	41307
279.74554	41312
279.7551	41140
279.76462	41219
279.77417	41006
279.78369	41093
279.79324	41167
279.8028	41217
279.81232	41336
279.82187	41125
279.83139	41112
279.84094	41243
279.85049	41035
279.86002	41307
279.86957	41179
279.87909	41485
279.88864	41142
279.89816	41110
279.90771	41084
279.91727	41171
279.92679	41093
279.93634	41005
279.94586	41008
279.95541	41017
279.96494	40983
279.97449	40830
279.98401	41099
279.99356	40871
280.00308	40670
280.01263	40627
280.02216	40629
280.03168	40408
280.04123	40705
280.05075	40306
280.0603	40624
280.06982	40602
280.07938	40641
280.0889	40481
280.09845	40617
280.10797	40498
280.11749	40868
280.12704	40585
280.13657	40877
280.14612	41055
280.15564	40856
280.16516	41365
280.17471	41440
280.18423	41335
280.19376	41482
280.20331	41761
280.21283	41705
280.22238	41520
280.2319	41114
280.24142	41216
280.25098	41380
280.2605	41279
280.27002	41162
280.27957	41329
280.28909	41400
280.29861	41353
280.30814	41678
280.31769	41804
280.32721	42004
280.33673	41957
280.34628	41790
280.3558	42130
280.36533	42125
280.37485	42432
280.3844	42376
280.39392	42604
280.40344	42713
280.41296	42307
280.42252	42229
280.43204	42375
280.44156	42258
280.45108	42471
280.4606	42158
280.47015	42130
280.47968	42511
280.4892	42382
280.49872	42449
280.50824	42516
280.51776	42788
280.52731	42622
280.53683	42243
280.54636	42243
280.55588	42151
280.5654	41748
280.57492	41701
280.58444	41852
280.59399	42087
280.60352	41985
280.61304	42064
280.62256	42207
280.63208	42382
280.6416	41963
280.65112	42463
280.66064	41859
280.67017	42216
280.67969	41776
280.68924	41947
280.69876	41741
280.70828	41675
280.7178	41714
280.72733	41755
280.73685	41429
280.74637	41704
280.75589	41544
280.76541	41613
280.77493	41719
280.78445	41743
280.79398	42008
280.8035	42327
280.81302	42367
280.82254	42380
280.83206	42234
280.84158	42398
280.8511	42426
280.86063	42464
280.87015	42427
280.87967	42564
280.88916	42417
280.89868	42401
280.9082	42148
280.91772	41778
280.92725	41823
280.93677	42087
280.94629	42259
280.95581	42239
280.96533	42321
280.97485	42562
280.98438	42659
280.99387	42475
281.00339	42827
281.01291	42642
281.02243	42881
281.03195	43206
281.04147	43211
281.05099	43033
281.06049	43432
281.07001	43194
281.07953	43337
281.08905	43358
281.09857	43052
281.10806	43186
281.11758	43291
281.12711	43061
281.13663	43143
281.14615	42744
281.15564	43280
281.16516	43317
281.17468	42907
281.1842	43208
281.1937	43013
281.20322	42956
281.21274	42959
281.22226	43277
281.23175	43323
281.24127	43353
281.25079	43286
281.26031	43510
281.26981	43749
281.27933	43705
281.28885	43485
281.29834	43602
281.30786	43508
281.31738	43615
281.32687	43654
281.3364	43477
281.34592	43400
281.35541	43654
281.36493	43738
281.37445	43411
281.38394	43570
281.39346	43489
281.40295	43198
281.41248	43482
281.422	43223
281.43149	43448
281.44101	43249
281.4505	43549
281.46002	43260
281.46954	43365
281.47903	43337
281.48856	43238
281.49805	43371
281.50757	43205
281.51706	43451
281.52658	43039
281.5361	43267
281.54559	43205
281.55511	43184
281.56461	43223
281.57413	43456
281.58362	43277
281.59314	43459
281.60263	43363
281.61215	43600
281.62164	43629
281.63116	43548
281.64066	43552
281.65018	43594
281.65967	43306
281.66916	43551
281.67868	43249
281.68817	43357
281.69769	43435
281.70718	42859
281.71671	43210
281.7262	42757
281.73569	43124
281.74521	43156
281.7547	43058
281.76422	43191
281.77371	43340
281.7832	43259
281.79272	43211
281.80222	42654
281.81174	41362
281.82123	38891
