Date and Time:                Fri Oct 7 11:48:42.000 2022
Software Version:             4.31.30023.0
Temperature (C):              -40
Model:                        DU940P_BU2
Data Type:                    Counts
Acquisition Mode:             Single Scan
Trigger Mode:                 Internal
Exposure Time (secs):         28
Readout Mode:                 Full Vertical Binning
Horizontal binning:           1
Extended Dynamic Range:       off
Horizontally flipped:         false
Vertical Shift Speed (usecs): 14.51
Pixel Readout Rate (MHz):     3
Baseline Clamp:               ON
Clock Amplitude:              Normal
Output Amplifier:             High Capacity
Serial Number:                23634
Pre-Amplifier Gain:           1.000000
Spurious Noise Filter Mode:   No Filter
Photon counted:               false
Data Averaging Filter Mode:   No Filter
SR500i:
Serial Number:                
Wavelength (nm):              225
Grating Groove Density (l/mm):1199.47
Grating Blaze:                500
Output Flipper Port:          Direct
Accessory Output Port 1:      Off
Accessory Output Port 2:      Off
Accessory Output Port 3:      Off
Accessory Input Port:         On



203.08546	3259
203.10698	3127
203.12848	3155
203.14999	3178
203.17151	3150
203.19302	3164
203.21452	3228
203.23604	3237
203.25755	3197
203.27905	3220
203.30057	3215
203.32208	3241
203.34358	3226
203.3651	3253
203.38661	3264
203.40811	3296
203.42963	3335
203.45113	3316
203.47264	3368
203.49416	3401
203.51566	3353
203.53717	3387
203.55867	3392
203.58018	3387
203.60168	3427
203.6232	3453
203.6447	3468
203.66621	3491
203.68771	3520
203.70923	3540
203.73073	3554
203.75224	3551
203.77374	3552
203.79526	3616
203.81676	3574
203.83827	3625
203.85977	3649
203.88127	3669
203.90279	3698
203.92429	3715
203.94579	3717
203.9673	3702
203.9888	3724
204.01031	3707
204.03181	3746
204.05331	3808
204.07481	3811
204.09633	3814
204.11783	3855
204.13933	3899
204.16084	3898
204.18234	3859
204.20384	3884
204.22534	3932
204.24684	3950
204.26836	3993
204.28986	3991
204.31136	4035
204.33286	4065
204.35435	4063
204.37587	4070
204.39737	4053
204.41887	4139
204.44037	4114
204.46187	4104
204.48337	4169
204.50487	4148
204.52637	4172
204.54787	4170
204.56937	4170
204.59087	4227
204.61237	4263
204.63387	4303
204.65536	4273
204.67688	4276
204.69836	4318
204.71986	4346
204.74136	4329
204.76286	4374
204.78436	4422
204.80586	4407
204.82736	4420
204.84886	4436
204.87036	4429
204.89186	4448
204.91336	4536
204.93486	4559
204.95636	4608
204.97784	4604
204.99934	4643
205.02084	4620
205.04234	4659
205.06384	4661
205.08534	4727
205.10683	4742
205.12833	4787
205.14983	4820
205.17133	4790
205.19281	4833
205.21431	4885
205.23581	4907
205.25731	4919
205.27879	4927
205.30029	4970
205.32179	4960
205.34328	5006
205.36478	5020
205.38628	5075
205.40776	5083
205.42926	5101
205.45074	5106
205.47224	5108
205.49374	5136
205.51523	5183
205.53673	5211
205.55821	5216
205.57971	5240
205.6012	5274
205.6227	5312
205.6442	5384
205.66568	5358
205.68718	5382
205.70866	5420
205.73015	5465
205.75165	5444
205.77313	5447
205.79463	5487
205.81612	5519
205.83762	5494
205.8591	5536
205.88058	5600
205.90208	5600
205.92357	5597
205.94507	5623
205.96655	5603
205.98804	5675
206.00954	5715
206.03102	5665
206.05251	5748
206.07401	5752
206.09549	5767
206.11697	5792
206.13846	5865
206.15996	5907
206.18144	5893
206.20293	5908
206.22441	5959
206.24591	5988
206.2674	6049
206.28888	6054
206.31036	6132
206.33185	6142
206.35335	6196
206.37483	6195
206.39632	6239
206.4178	6262
206.43929	6341
206.46077	6318
206.48225	6408
206.50374	6395
206.52522	6407
206.54672	6391
206.56821	6538
206.58969	6578
206.61118	6636
206.63266	6640
206.65414	6687
206.67563	6797
206.69711	6856
206.7186	6823
206.74008	6844
206.76157	6875
206.78304	6917
206.80452	6947
206.826	6979
206.84749	7023
206.86897	7045
206.89046	7092
206.91194	7124
206.93343	7165
206.95491	7168
206.97638	7197
206.99786	7282
207.01935	7292
207.04083	7298
207.06232	7342
207.0838	7436
207.10527	7467
207.12675	7504
207.14824	7510
207.16972	7555
207.19119	7577
207.21268	7542
207.23416	7555
207.25563	7565
207.27711	7634
207.2986	7716
207.32007	7699
207.34155	7748
207.36304	7863
207.38451	7922
207.40599	7961
207.42747	7986
207.44894	7991
207.47043	8017
207.4919	7995
207.51338	7997
207.53487	8016
207.55634	8023
207.57782	8154
207.59929	8229
207.62077	8208
207.64224	8287
207.66373	8293
207.6852	8304
207.70668	8349
207.72815	8406
207.74962	8462
207.7711	8606
207.79257	8656
207.81406	8688
207.83553	8732
207.85701	8826
207.87848	8795
207.89995	8763
207.92143	8811
207.9429	8918
207.96437	8971
207.98586	9018
208.00732	8998
208.02879	8985
208.05028	9063
208.07175	9037
208.09322	9227
208.11469	9242
208.13617	9325
208.15764	9311
208.17911	9269
208.20058	9301
208.22205	9356
208.24353	9465
208.265	9555
208.28647	9660
208.30794	9731
208.32941	9697
208.35088	9750
208.37236	9787
208.39383	9812
208.4153	9834
208.43677	9868
208.45824	9900
208.47971	9972
208.50117	9915
208.52264	9924
208.54411	9996
208.56558	10010
208.58705	10043
208.60852	10007
208.62999	10028
208.65146	10034
208.67293	10059
208.6944	10106
208.71587	10183
208.73734	10219
208.7588	10301
208.78027	10436
208.80174	10493
208.82321	10512
208.84467	10530
208.86613	10528
208.8876	10594
208.90907	10542
208.93054	10550
208.95201	10566
208.97346	10587
208.99493	10603
209.0164	10572
209.03787	10629
209.05934	10703
209.0808	10713
209.10226	10782
209.12373	10712
209.1452	10788
209.16666	10842
209.18813	10899
209.20959	10993
209.23105	11082
209.25252	11188
209.27399	11217
209.29544	11181
209.31691	11220
209.33836	11202
209.35983	11264
209.3813	11352
209.40276	11384
209.42422	11408
209.44568	11445
209.46715	11501
209.4886	11537
209.51007	11477
209.53152	11535
209.55299	11675
209.57445	11854
209.59592	11959
209.61737	11840
209.63884	11834
209.66029	11901
209.68176	11958
209.70322	11962
209.72469	12019
209.74614	12136
209.76759	12297
209.78906	12226
209.81052	12193
209.83197	12282
209.85344	12329
209.87489	12385
209.89635	12463
209.91782	12442
209.93927	12459
209.96072	12548
209.98219	12546
210.00365	12671
210.0251	12608
210.04655	12696
210.06802	12803
210.08948	12876
210.11093	12943
210.13239	12923
210.15384	12993
210.17531	13029
210.19676	13139
210.21822	13260
210.23967	13331
210.26112	13435
210.28258	13550
210.30403	13605
210.32549	13612
210.34695	13710
210.36841	13712
210.38986	13719
210.41132	13749
210.43277	13846
210.45422	14006
210.47568	14060
210.49713	14190
210.51859	14289
210.54004	14235
210.56149	14299
210.58295	14261
210.6044	14452
210.62585	14428
210.64729	14571
210.66875	14654
210.6902	14733
210.71165	14760
210.73311	14822
210.75456	14901
210.77602	15028
210.79747	15164
210.81891	15181
210.84036	15271
210.86182	15369
210.88327	15392
210.90472	15411
210.92616	15539
210.94762	15655
210.96907	15784
210.99052	15826
211.01196	15858
211.03342	16028
211.05487	16213
211.07631	16262
211.09776	16235
211.11922	16238
211.14066	16346
211.16211	16294
211.18356	16436
211.205	16532
211.22646	16617
211.24791	16611
211.26935	16636
211.2908	16612
211.31224	16675
211.33369	16669
211.35513	16781
211.37659	17022
211.39803	16976
211.41948	16925
211.44092	17029
211.46237	17164
211.48381	17243
211.50526	17399
211.5267	17438
211.54816	17510
211.5696	17636
211.59103	17666
211.61249	17731
211.63393	17814
211.65538	17924
211.67682	18013
211.69826	18104
211.71971	18121
211.74115	18357
211.76259	18338
211.78404	18465
211.80548	18456
211.82692	18425
211.84836	18319
211.86981	18424
211.89125	18523
211.91269	18566
211.93413	18573
211.95558	18779
211.97702	18946
211.99846	18952
212.0199	18869
212.04134	18993
212.06277	18984
212.08423	19101
212.10567	19261
212.12711	19438
212.14854	19638
212.16998	19712
212.19142	19689
212.21286	19823
212.2343	19917
212.25574	19936
212.27718	20149
212.29861	20247
212.32005	20253
212.34149	20304
212.36293	20267
212.38437	20306
212.40581	20531
212.42725	20687
212.44868	20694
212.47012	20886
212.49156	21089
212.513	21284
212.53444	21180
212.55588	21235
212.57732	21334
212.59874	21453
212.62018	21650
212.64162	21740
212.66306	21975
212.68449	22181
212.70593	22259
212.72736	22141
212.74879	22255
212.77023	22253
212.79167	22382
212.8131	22481
212.83453	22636
212.85597	22682
212.87741	22612
212.89883	22669
212.92027	22892
212.94171	22983
212.96313	23140
212.98457	23124
213.00601	23293
213.02744	23181
213.04887	23221
213.0703	23272
213.09174	23249
213.11317	23334
213.1346	23467
213.15604	23704
213.17746	23849
213.1989	24063
213.22032	24100
213.24176	24151
213.26318	24074
213.28462	24093
213.30605	24145
213.32748	24190
213.34891	24269
213.37033	24225
213.39177	24238
213.41319	24510
213.43463	24570
213.45605	24635
213.47748	24623
213.49892	24611
213.52034	24720
213.54176	24903
213.5632	25034
213.58463	25259
213.60605	25530
213.62749	25670
213.64891	25658
213.67033	25885
213.69177	26008
213.7132	26009
213.73462	26011
213.75604	26020
213.77747	26170
213.7989	26345
213.82033	26367
213.84175	26422
213.86317	26421
213.8846	26456
213.90602	26628
213.92744	26936
213.94888	27227
213.97031	27396
213.99173	27482
214.01315	27474
214.03458	27423
214.056	27529
214.07742	27744
214.09885	27958
214.12027	28374
214.14169	28540
214.16312	28614
214.18454	28776
214.20596	28801
214.22739	28661
214.24881	28673
214.27023	28758
214.29166	29017
214.31308	28909
214.33449	28824
214.35591	28904
214.37733	28964
214.39876	29097
214.42018	28969
214.4416	28855
214.46303	28876
214.48444	28888
214.50586	28979
214.52728	29220
214.54871	29245
214.57011	29379
214.59154	29562
214.61296	29867
214.63438	30063
214.65579	29968
214.67722	29951
214.69864	30006
214.72005	29951
214.74147	30012
214.76289	30075
214.7843	30116
214.80573	30178
214.82715	30087
214.84856	29887
214.86998	29858
214.89139	30064
214.91281	30241
214.93423	30294
214.95564	30317
214.97707	30346
214.99847	30337
215.0199	30372
215.04131	30470
215.06273	30668
215.08414	30730
215.10556	30853
215.12697	31028
215.14838	31070
215.1698	30943
215.19121	30763
215.21263	30869
215.23404	30945
215.25545	31010
215.27687	30939
215.29828	30941
215.31969	30896
215.34111	30790
215.36252	30984
215.38393	31266
215.40535	31543
215.42676	31612
215.44817	31655
215.46957	31423
215.491	31510
215.51241	31677
215.53381	31851
215.55522	31852
215.57663	31945
215.59805	32149
215.61946	32091
215.64087	32115
215.66228	32079
215.68369	32348
215.70509	32272
215.7265	32451
215.74792	32414
215.76933	32540
215.79074	32495
215.81215	32554
215.83356	32621
215.85497	32697
215.87637	32593
215.89778	32325
215.91919	32421
215.9406	32484
215.96201	32547
215.98341	32785
216.00482	32832
216.02623	32858
216.04762	32837
216.06903	33032
216.09044	33120
216.11185	33031
216.13326	32961
216.15466	33165
216.17607	33185
216.19748	33171
216.21887	33138
216.24028	33240
216.26169	33381
216.2831	33361
216.3045	33259
216.3259	33394
216.34731	33459
216.36871	33347
216.39012	33101
216.41151	32901
216.43292	32787
216.45433	32836
216.47572	32920
216.49713	33059
216.51854	33171
216.53993	32884
216.56134	32955
216.58273	33122
216.60414	33303
216.62555	33200
216.64694	33306
216.66835	33322
216.68974	33364
216.71115	33235
216.73254	33280
216.75395	33256
216.77534	33340
216.79675	33565
216.81815	33343
216.83955	33500
216.86095	33725
216.88235	34042
216.90375	34043
216.92514	33893
216.94655	33966
216.96794	33813
216.98935	33938
217.01074	33909
217.03214	34058
217.05354	33985
217.07494	33945
217.09633	33885
217.11774	33784
217.13913	33644
217.16052	33595
217.18192	33679
217.20332	33869
217.22472	33799
217.24611	33573
217.2675	33589
217.28891	33491
217.3103	33636
217.3317	33562
217.35309	33657
217.37448	33512
217.39587	33330
217.41727	33276
217.43867	33253
217.46007	33171
217.48146	33151
217.50285	33172
217.52425	33247
217.54564	33499
217.56703	33583
217.58842	33597
217.60982	33518
217.63121	33360
217.6526	33326
217.674	33097
217.69539	32871
217.71678	32780
217.73817	32653
217.75957	32642
217.78096	32728
217.80235	32637
217.82373	32440
217.84512	32256
217.86652	32341
217.88791	32197
217.9093	32089
217.93069	32133
217.95209	32393
217.97346	32499
217.99486	32492
218.01625	32332
218.03764	32332
218.05902	32370
218.08041	32362
218.10181	32312
218.1232	32264
218.14458	32240
218.16597	31937
218.18736	31977
218.20874	31942
218.23013	31928
218.25153	31811
218.2729	31742
218.2943	32068
218.31567	32265
218.33707	32290
218.35846	31930
218.37984	31818
218.40123	31787
218.42261	31891
218.444	32057
218.46538	32150
218.48677	32351
218.50815	32419
218.52954	32241
218.55092	32124
218.57231	31987
218.59369	31942
218.61507	31840
218.63646	32011
218.65784	31992
218.67923	31747
218.70061	31615
218.72198	31691
218.74338	31608
218.76476	31538
218.78613	31308
218.80753	31301
218.8289	31117
218.85028	31064
218.87166	30988
218.89305	30906
218.91443	30852
218.93581	30843
218.95718	31042
218.97858	31198
218.99995	31112
219.02133	31130
219.04271	31177
219.06409	31079
219.08546	30802
219.10686	30672
219.12823	30681
219.14961	30676
219.17099	30621
219.19237	30266
219.21375	30337
219.23512	30412
219.2565	30455
219.27788	30368
219.29926	30223
219.32063	30211
219.34201	30074
219.36339	30154
219.38477	30100
219.40614	30532
219.42752	30676
219.4489	30532
219.47028	30441
219.49165	30435
219.51303	30281
219.53439	30239
219.55577	30087
219.57715	30047
219.59853	30004
219.6199	30022
219.64128	30033
219.66264	29888
219.68402	29610
219.7054	29455
219.72678	29716
219.74814	30008
219.76952	30059
219.79089	30048
219.81227	29859
219.83363	29696
219.85501	29537
219.87639	29573
219.89775	29749
219.91913	30030
219.94051	30255
219.96187	30179
219.98325	30082
220.00461	30177
220.02599	30108
220.04735	29980
220.06873	29951
220.0901	29934
220.11147	29928
220.13284	29685
220.15421	29548
220.17558	29572
220.19695	29557
220.21832	29516
220.23969	29300
220.26105	29163
220.28242	29132
220.30379	29128
220.32516	29220
220.34653	29339
220.36789	29318
220.38927	29304
220.41063	29437
220.43199	29667
220.45337	29496
220.47473	29416
220.49609	29415
220.51747	29401
220.53883	29277
220.5602	29112
220.58156	29172
220.60294	29257
220.6243	29098
220.64566	28789
220.66702	28665
220.68839	28733
220.70976	28901
220.73112	28941
220.75249	29038
220.77385	28954
220.79521	28919
220.81657	28704
220.83794	28567
220.8593	28639
220.88066	28662
220.90202	28752
220.92339	28866
220.94475	28928
220.96611	28890
220.98747	28718
221.00883	28615
221.0302	28648
221.05156	28676
221.07292	28690
221.09428	28777
221.11565	28752
221.13701	28626
221.15837	28516
221.17973	28604
221.2011	28793
221.22246	28966
221.2438	28866
221.26517	28743
221.28653	28743
221.30789	28673
221.32925	28741
221.3506	28652
221.37196	28662
221.39333	28693
221.41469	28745
221.43604	28681
221.4574	28711
221.47876	28726
221.50011	28789
221.52147	28754
221.54283	28825
221.56418	28810
221.58554	28573
221.6069	28587
221.62825	28571
221.64961	28624
221.67096	28491
221.69232	28388
221.71368	28352
221.73503	28359
221.75639	28336
221.77774	28569
221.7991	28642
221.82045	28535
221.84181	28513
221.86316	28614
221.88451	28599
221.90587	28686
221.92722	28660
221.94858	28701
221.96992	28688
221.99127	28767
222.01263	28822
222.03398	28854
222.05534	28878
222.07669	28845
222.09804	28789
222.11938	29007
222.14075	29257
222.16209	29198
222.18344	29086
222.2048	28683
222.22615	28529
222.2475	28457
222.26884	28363
222.29019	28299
222.31155	28441
222.3329	28479
222.35425	28335
222.3756	28321
222.39694	28440
222.41829	28588
222.43964	28585
222.46098	28664
222.48235	28701
222.50369	28678
222.52504	28563
222.54639	28566
222.56773	28549
222.58908	28655
222.61043	28585
222.63177	28615
222.65312	28893
222.67447	29080
222.69582	29236
222.71715	29027
222.73849	28862
222.75984	28963
222.78119	29006
222.80254	28970
222.82388	29197
222.84523	29322
222.86658	29285
222.88791	29193
222.90926	29118
222.9306	29120
222.95195	29025
222.9733	29181
222.99463	29274
223.01598	29290
223.03732	29074
223.05867	29028
223.08	29051
223.10135	29179
223.1227	29166
223.14403	29303
223.16537	29215
223.18672	29056
223.20805	29000
223.2294	28844
223.25073	28740
223.27208	28874
223.29343	28959
223.31476	28880
223.33611	29007
223.35744	29046
223.37878	29105
223.40012	29022
223.42146	29105
223.44279	28951
223.46414	28668
223.48547	28603
223.50682	28588
223.52815	28561
223.54948	28454
223.57083	28529
223.59216	28680
223.61349	28641
223.63484	28606
223.65617	28662
223.67752	28597
223.69885	28511
223.72018	28653
223.74152	28927
223.76286	29224
223.78419	29467
223.80553	29364
223.82686	29234
223.84821	29121
223.86954	29047
223.89087	29045
223.9122	29130
223.93353	29150
223.95488	29146
223.97621	29047
223.99754	28919
224.01888	28743
224.04021	28576
224.06154	28464
224.08287	28693
224.1042	28829
224.12553	29130
224.14687	29012
224.1682	28918
224.18953	28719
224.21086	28555
224.23219	28661
224.25352	28800
224.27486	29035
224.29619	29343
224.31752	29347
224.33885	29288
224.36018	29348
224.38152	29333
224.40285	29250
224.42418	29282
224.4455	29346
224.46683	29277
224.48816	29071
224.50949	28783
224.53082	28733
224.55214	28597
224.57347	28512
224.5948	28599
224.61613	28690
224.63745	28647
224.65878	28614
224.68011	28683
224.70145	28627
224.72276	28809
224.74409	28902
224.76541	29108
224.78674	29342
224.80807	29147
224.82939	29274
224.85072	29481
224.87204	29454
224.89337	29301
224.9147	28898
224.93602	28959
224.95735	29096
224.97867	28923
225	28823
225.02132	28898
225.04265	29119
225.06396	29295
225.08528	29411
225.10661	29312
225.12793	29260
225.14926	29289
225.17058	29293
225.19189	29426
225.21323	29648
225.23454	29643
225.25586	29519
225.27719	29517
225.29851	29569
225.31982	29447
225.34116	29372
225.36247	29423
225.38379	29314
225.40511	29327
225.42644	29296
225.44775	29273
225.46907	29120
225.49039	29092
225.5117	29133
225.53304	29347
225.55435	29388
225.57567	29406
225.59698	29408
225.6183	29397
225.63962	29247
225.66093	29282
225.68225	29345
225.70357	29417
225.72488	29564
225.7462	29698
225.76752	29542
225.78883	29492
225.81015	29417
225.83147	29446
225.85278	29417
225.8741	29417
225.89542	29458
225.91673	29345
225.93805	29453
225.95937	29345
225.98068	29332
226.00198	29341
226.0233	29118
226.04462	29067
226.06593	29179
226.08725	29313
226.10855	29337
226.12987	29285
226.15118	29174
226.1725	29376
226.1938	29512
226.21512	29621
226.23643	29488
226.25775	29485
226.27905	29419
226.30037	29369
226.32167	29256
226.34299	29263
226.3643	29219
226.3856	29196
226.40692	29265
226.42824	29047
226.44954	28851
226.47086	28866
226.49216	28917
226.51347	28677
226.53477	28632
226.55609	28647
226.57739	28659
226.59871	28484
226.62001	28188
226.64131	28082
226.66263	28167
226.68393	28170
226.70525	28184
226.72655	28204
226.74785	28432
226.76917	28215
226.79047	28089
226.81177	28196
226.83308	28121
226.85439	28021
226.87569	28148
226.897	28200
226.9183	28195
226.93961	28156
226.96091	28094
226.98222	28220
227.00352	28503
227.02483	28580
227.04613	28563
227.06743	28293
227.08873	28307
227.11005	28237
227.13135	27982
227.15265	28053
227.17395	28235
227.19525	28396
227.21655	28296
227.23785	28414
227.25916	28343
227.28046	28586
227.30176	28610
227.32306	28591
227.34436	28450
227.36566	28530
227.38696	28500
227.40826	28650
227.42957	28813
227.45087	28804
227.47217	28654
227.49347	28557
227.51476	28528
227.53606	28353
227.55736	28395
227.57866	28612
227.59996	28768
227.62126	28721
227.64255	28747
227.66385	28827
227.68515	28904
227.70645	28886
227.72774	28972
227.74904	29107
227.77034	29265
227.79163	29190
227.81293	29063
227.83423	28930
227.85551	28992
227.87682	28978
227.89812	29110
227.9194	29284
227.9407	29539
227.96199	29503
227.98329	29364
228.00459	29246
228.02588	29121
228.04718	29114
228.06847	29189
228.08977	29166
228.11105	29416
228.13234	29488
228.15364	29535
228.17493	29566
228.19623	29709
228.21751	29843
228.23882	29919
228.2601	30107
228.28139	30021
228.30269	30134
228.32397	30060
228.34526	30053
228.36656	30116
228.38785	30130
228.40913	30014
228.43042	30139
228.45172	30551
228.47301	30854
228.49429	30802
228.51558	30675
228.53688	30597
228.55817	30648
228.57945	30873
228.60074	30999
228.62202	31269
228.64331	31517
228.6646	31433
228.6859	31492
228.70718	31468
228.72847	31492
228.74976	31603
228.77104	31771
228.79233	31945
228.81361	32068
228.8349	31917
228.85619	31993
228.87747	32098
228.89876	32159
228.92004	32180
228.94133	32281
228.9626	32411
228.98389	32426
229.00517	32403
229.02646	32465
229.04774	32483
229.06903	32721
229.09032	32771
229.11159	33200
229.13287	33328
229.15416	33389
229.17545	33347
229.19673	33592
229.218	33489
229.23929	33489
229.26057	33411
229.28185	33496
229.30313	33350
229.32442	33235
229.34569	33226
229.36697	33547
229.38826	33508
229.40953	33523
229.43082	33237
229.45209	33337
229.47337	33297
229.49466	33225
229.51593	33500
229.53722	33702
229.55849	34105
229.57977	34138
229.60104	33938
229.62233	33834
229.6436	33624
229.66489	33483
229.68616	33326
229.70743	33226
229.72871	33185
229.74998	33141
229.77126	33137
229.79254	32860
229.81381	32721
229.8351	32668
229.85637	32693
229.87764	32894
229.89891	32912
229.9202	32919
229.94147	32715
229.96274	32517
229.98401	32328
230.00529	32500
230.02657	32571
230.04784	32744
230.06911	32922
230.09038	33002
230.11165	32947
230.13293	32660
230.15421	32853
230.17548	32639
230.19675	32425
230.21802	32486
230.23929	32474
230.26056	32354
230.28183	32093
230.3031	32043
230.32437	31913
230.34564	31831
230.36691	31588
230.38818	31490
230.40945	31540
230.43073	31523
230.452	31651
230.47327	31568
230.49454	31568
230.51579	31511
230.53706	31632
230.55833	31736
230.57961	31866
230.60088	31883
230.62215	31932
230.6434	31862
230.66467	31784
230.68594	31698
230.70721	31578
230.72847	31665
230.74974	31588
230.77101	31402
230.79227	31283
230.81354	31482
230.83481	31614
230.85606	31666
230.87733	31810
230.89861	31784
230.91986	31753
230.94113	31613
230.96239	31523
230.98366	31685
231.00491	31816
231.02618	31802
231.04744	31881
231.06871	31879
231.08997	32123
231.11124	32017
231.13249	32039
231.15376	32090
231.17502	32073
231.19629	32038
231.21754	32207
231.2388	32168
231.26007	32286
231.28133	32179
231.30258	32114
231.32385	32410
231.34511	32656
231.36636	32579
231.38763	32549
231.40889	32623
231.43015	32621
231.4514	32652
231.47266	32882
231.49393	33043
231.51518	33191
231.53644	33218
231.55769	33271
231.57895	33348
231.6002	33333
231.62148	33410
231.64273	33437
231.66399	33555
231.68524	33501
231.7065	33381
231.72775	33526
231.74901	33569
231.77026	33479
231.79152	33638
231.81277	33236
231.83403	33037
231.85529	33134
231.87654	33294
231.8978	33609
231.91905	33599
231.94031	33444
231.96155	33514
231.9828	33547
232.00406	33595
232.02531	33724
232.04657	33470
232.06783	33590
232.08907	33749
232.11032	33632
232.13158	33742
232.15283	33558
232.17407	33720
232.19533	33630
232.21658	33547
232.23784	33527
232.25908	33527
232.28033	33648
232.30159	33692
232.32283	33672
232.34409	33513
232.36533	33680
232.38658	33291
232.40784	33129
232.42908	32800
232.45033	32728
232.47157	32706
232.49283	32893
232.51407	33173
232.53532	33234
232.55656	32984
232.57782	32852
232.59906	32707
232.6203	32744
232.64156	32718
232.6628	33011
232.68405	33200
232.70529	33203
232.72653	33317
232.74779	33000
232.76903	33294
232.79027	33320
232.81152	33681
232.83276	33577
232.854	33739
232.87524	33612
232.8965	33437
232.91774	33167
232.93898	33206
232.96022	33267
232.98146	33344
233.00272	33270
233.02396	33493
233.0452	33663
233.06644	33877
233.08768	33723
233.10892	33806
233.13016	33999
233.1514	33957
233.17264	34140
233.19388	34117
233.21512	34205
233.23636	34344
233.2576	34104
233.27884	34087
233.30008	34083
233.32132	34047
233.34256	34117
233.3638	34281
233.38504	34344
233.40628	34258
233.42752	34204
233.44876	34328
233.46999	34160
233.49123	34289
233.51247	34500
233.53371	34399
233.55495	34572
233.57617	34413
233.59741	34365
233.61865	34298
233.63989	34363
233.66112	34504
233.68236	34425
233.7036	34608
233.72482	34826
233.74606	34631
233.7673	34457
233.78853	34107
233.80977	34100
233.83099	34036
233.85223	33907
233.87347	34032
233.8947	34085
233.91594	34052
233.93716	34096
233.9584	34111
233.97963	34166
234.00087	34291
234.02209	34143
234.04332	34095
234.06456	34147
234.08578	34119
234.10703	33977
234.12825	34070
234.14948	33726
234.17072	33820
234.19194	33603
234.21317	34064
234.23441	34344
234.25563	34553
234.27686	34437
234.29808	34413
234.31932	34099
234.34055	33973
234.36177	34177
234.383	34253
234.40424	34446
234.42546	34733
234.44669	34445
234.46791	34525
234.48914	34487
234.51036	34272
234.53159	34355
234.55281	34202
234.57404	34410
234.59526	34347
234.61649	34324
234.63773	34192
234.65895	34263
234.68016	34209
234.70139	34039
234.72261	34010
234.74384	33817
234.76506	33692
234.78629	33463
234.80751	33523
234.82874	33512
234.84996	33623
234.87119	33744
234.89241	33683
234.91362	33955
234.93484	33658
234.95607	33682
234.97729	33731
234.9985	33516
235.01973	33519
235.04095	33481
235.06218	33275
235.08339	33264
235.10461	33133
235.12584	32921
235.14705	32938
235.16827	32925
235.1895	32883
235.21071	32646
235.23193	32718
235.25314	32589
235.27437	32387
235.29559	32472
235.3168	32650
235.33803	33030
235.35924	33017
235.38046	32900
235.40167	32700
235.4229	32610
235.44411	32339
235.46532	32237
235.48654	32279
235.50775	32277
235.52898	32418
235.55019	32427
235.5714	32329
235.59262	32072
235.61383	31822
235.63504	31843
235.65627	32046
235.67747	32199
235.69868	32147
235.71989	32004
235.74112	31810
235.76233	31543
235.78354	31724
235.80475	31777
235.82596	31787
235.84718	32013
235.86839	32009
235.8896	31864
235.91081	31773
235.93202	31814
235.95323	31681
235.97444	31651
235.99565	31668
236.01686	31574
236.03807	31250
236.05928	31163
236.08049	31027
236.1017	30878
236.12291	30674
236.14412	30277
236.16533	30439
236.18654	30386
236.20775	30413
236.22896	30412
236.25017	30360
236.27136	30195
236.29257	30212
236.31378	30396
236.33499	30505
236.3562	30446
236.3774	30237
236.39861	30208
236.41982	30236
236.44102	30129
236.46222	29917
236.48343	29777
236.50464	29908
236.52583	29609
236.54704	29325
236.56825	29191
236.58945	29192
236.61066	29173
236.63187	29069
236.65306	29021
236.67427	29036
236.69547	28844
236.71667	28519
236.73787	28372
236.75908	28402
236.78027	28399
236.80148	28372
236.82268	28331
236.84389	28206
236.86508	28017
236.88629	27751
236.90749	27772
236.92868	27613
236.94989	27574
236.97108	27566
236.99228	27682
237.01349	27543
237.03468	27358
237.05588	27257
237.07709	27141
237.09828	27282
237.11948	27160
237.14067	27079
237.16187	26855
237.18307	26740
237.20427	26554
237.22546	26474
237.24666	26439
237.26785	26427
237.28905	26566
237.31024	26439
237.33145	26378
237.35265	26371
237.37384	26314
237.39503	26211
237.41623	26137
237.43742	26020
237.45862	26009
237.47981	25869
237.50101	25773
237.5222	25665
237.5434	25695
237.56458	25528
237.58577	25286
237.60696	25108
237.62816	25098
237.64935	24969
237.67055	25097
237.69174	25115
237.71292	24993
237.73412	24770
237.75531	24962
237.7765	24826
237.7977	24728
237.81888	24642
237.84007	24435
237.86127	24462
237.88245	24397
237.90364	24237
237.92484	23929
237.94601	23830
237.96721	23676
237.9884	23599
238.00958	23601
238.03078	23672
238.05196	23611
238.07315	23523
238.09433	23465
238.11552	23438
238.1367	23205
238.1579	22947
238.17908	22678
238.20027	22618
238.22145	22491
238.24265	22404
238.26382	22471
238.285	22571
238.3062	22490
238.32738	22360
238.34857	22242
238.36975	22254
238.39093	22158
238.41211	22162
238.4333	22059
238.45448	22034
238.47566	21915
238.49686	21706
238.51804	21645
238.53922	21795
238.56039	21887
238.58157	21794
238.60275	21702
238.62395	21551
238.64513	21517
238.66631	21321
238.68748	21039
238.70866	20850
238.72984	20673
238.75102	20623
238.7722	20566
238.79338	20701
238.81456	20676
238.83574	20673
238.85692	20519
238.8781	20444
238.89928	20457
238.92046	20502
238.94164	20393
238.96281	20245
238.98399	20271
239.00516	20077
239.02634	19984
239.04752	19941
239.0687	19730
239.08987	19596
239.11105	19552
239.13222	19503
239.1534	19393
239.17458	19321
239.19576	19377
239.21692	19282
239.2381	19251
239.25928	19201
239.28044	19087
239.30162	19082
239.3228	19023
239.34396	18950
239.36514	18844
239.38631	18735
239.40749	18657
239.42865	18532
239.44983	18549
239.47099	18610
239.49217	18594
239.51334	18469
239.53452	18307
239.55568	18056
239.57686	17945
239.59802	17890
239.6192	17967
239.64037	18020
239.66153	17883
239.68271	17721
239.70387	17700
239.72504	17641
239.74622	17714
239.76738	17707
239.78854	17568
239.80972	17363
239.83089	17282
239.85205	17350
239.87321	17292
239.89438	17107
239.91556	16943
239.93672	16780
239.95789	16623
239.97905	16775
240.00021	16792
240.02138	16731
240.04254	16704
240.06372	16399
240.08488	16407
240.10605	16383
240.12721	16439
240.14838	16482
240.16954	16455
240.1907	16393
240.21187	16329
240.23303	16192
240.25418	16146
240.27534	16093
240.29651	16092
240.31767	16041
240.33884	15970
240.36	15800
240.38116	15676
240.40233	15630
240.42348	15594
240.44464	15526
240.46581	15420
240.48697	15298
240.50812	15235
240.52928	15152
240.55045	15109
240.57161	15078
240.59276	15027
240.61392	14935
240.63509	14950
240.65623	14933
240.6774	14816
240.69855	14801
240.71971	14726
240.74088	14754
240.76202	14642
240.78319	14463
240.80434	14330
240.8255	14372
240.84665	14314
240.86781	14166
240.88896	14006
240.91013	13938
240.93127	13885
240.95242	13790
240.97359	13706
240.99474	13657
241.01588	13554
241.03705	13462
241.0582	13362
241.07935	13383
241.10051	13352
241.12166	13358
241.14281	13296
241.16397	13182
241.18512	13105
241.20627	12929
241.22742	12851
241.24857	12903
241.26973	12819
241.29088	12779
241.31203	12668
241.33318	12573
241.35432	12465
241.37547	12399
241.39662	12353
241.41777	12371
241.43892	12388
241.46007	12331
241.48122	12330
241.50237	12198
241.52351	12191
241.54466	12047
241.56581	12068
241.58696	12081
241.60811	12118
241.62926	12099
241.65041	12013
241.67155	12009
241.6927	11995
241.71384	11897
241.73499	11836
241.75613	11840
241.77728	11763
241.79843	11675
241.81956	11601
241.84071	11577
241.86186	11487
241.88301	11415
241.90414	11229
241.92529	11177
241.94644	11254
241.96758	11168
241.98872	11144
242.00986	11178
242.03101	11070
242.05215	11018
242.07329	11050
242.09444	11061
242.11557	11041
242.13672	10872
242.15785	10846
242.179	10872
242.20013	10800
242.22128	10796
242.24242	10746
242.26357	10741
242.2847	10714
242.30583	10544
242.32698	10551
242.34811	10537
242.36925	10551
242.3904	10478
242.41153	10439
242.43266	10364
242.45381	10333
242.47495	10202
242.49608	10156
242.51721	10101
242.53835	10053
242.55949	9999
242.58063	9987
242.60176	9997
242.62289	9943
242.64403	9839
242.66516	9836
242.68629	9716
242.70744	9708
242.72858	9647
242.74971	9700
242.77084	9681
242.79198	9681
242.81311	9522
242.83424	9506
242.85538	9505
242.87651	9506
242.89763	9483
242.91876	9432
242.9399	9367
242.96103	9298
242.98216	9247
243.0033	9149
243.02443	9132
243.04556	9113
243.06668	9059
243.08781	9055
243.10895	9075
243.13008	8975
243.1512	9008
243.17233	8942
243.19347	8867
243.2146	8841
243.23572	8779
243.25685	8752
243.27797	8763
243.2991	8735
243.32024	8657
243.34135	8602
243.36249	8592
243.38361	8522
243.40474	8470
243.42587	8506
243.44699	8483
243.46812	8394
243.48924	8366
243.51036	8325
243.53149	8301
243.55261	8200
243.57375	8165
243.59486	8162
243.616	8102
243.63712	8028
243.65823	8041
243.67937	7906
243.70049	7945
243.7216	7892
243.74272	7823
243.76385	7854
243.78497	7815
243.80609	7820
243.82721	7764
243.84834	7710
243.86946	7615
243.89058	7559
243.9117	7437
243.93282	7359
243.95393	7366
243.97505	7298
243.99619	7246
244.0173	7293
244.03842	7240
244.05954	7250
244.08066	7148
244.10178	7135
244.12289	7119
244.14401	7111
244.16513	7068
244.18625	7095
244.20735	7153
244.22847	7107
244.24959	7019
244.27071	7004
244.29182	6989
244.31294	7000
244.33406	6918
244.35516	6930
244.37628	6886
244.3974	6816
244.41852	6804
244.43964	6792
244.46074	6703
244.48186	6750
244.50298	6720
244.52408	6755
244.5452	6716
244.56631	6669
244.58742	6610
244.60854	6609
244.62964	6595
244.65076	6588
244.67188	6595
244.69298	6621
244.7141	6577
244.7352	6554
244.75632	6496
244.77742	6435
244.79854	6438
244.81964	6390
244.84074	6323
244.86186	6318
244.88297	6277
244.90408	6232
244.92519	6263
244.94629	6218
244.96741	6226
244.98851	6166
245.00961	6150
245.03073	6120
245.05183	6111
245.07294	6061
245.09404	5978
245.11516	5982
245.13626	5932
245.15736	5949
245.17847	5970
245.19957	5972
245.22067	5936
245.24178	5988
245.26289	5883
245.284	5819
245.3051	5785
245.3262	5749
245.34731	5735
245.36841	5747
245.38951	5731
245.41061	5691
245.43172	5663
245.45282	5656
245.47392	5647
245.49503	5608
245.51611	5636
245.53722	5568
245.55832	5532
245.57942	5515
245.60052	5475
245.62163	5484
245.64272	5468
245.66382	5400
245.68492	5357
245.70602	5400
245.72711	5399
245.74821	5370
245.76932	5344
245.79042	5314
245.81151	5330
245.83261	5330
245.85371	5331
245.8748	5276
245.8959	5299
245.91699	5258
245.9381	5234
245.95918	5231
245.98029	5175
246.00137	5171
246.02248	5188
246.04356	5118
246.06467	5148
246.08575	5105
246.10686	5102
246.12794	5086
246.14905	5090
246.17014	5012
246.19122	5021
246.21233	5020
246.23341	4996
246.2545	4918
246.2756	4932
246.29669	4922
246.31778	4887
246.33887	4895
246.35997	4885
246.38106	4857
246.40215	4856
246.42323	4833
246.44432	4811
246.46542	4788
246.48651	4818
246.5076	4796
246.52869	4810
246.54977	4742
246.57086	4753
246.59195	4760
246.61304	4752
246.63412	4734
246.65521	4735
246.6763	4721
246.69739	4681
246.71848	4589
