Date and Time:                Fri Oct 7 11:57:40.000 2022
Software Version:             4.31.30023.0
Temperature (C):              -40
Model:                        DU940P_BU2
Data Type:                    Counts
Acquisition Mode:             Single Scan
Trigger Mode:                 Internal
Exposure Time (secs):         28
Readout Mode:                 Full Vertical Binning
Horizontal binning:           1
Extended Dynamic Range:       off
Horizontally flipped:         false
Vertical Shift Speed (usecs): 14.51
Pixel Readout Rate (MHz):     3
Baseline Clamp:               ON
Clock Amplitude:              Normal
Output Amplifier:             High Capacity
Serial Number:                23634
Pre-Amplifier Gain:           1.000000
Spurious Noise Filter Mode:   No Filter
Photon counted:               false
Data Averaging Filter Mode:   No Filter
SR500i:
Serial Number:                
Wavelength (nm):              225
Grating Groove Density (l/mm):1199.47
Grating Blaze:                500
Output Flipper Port:          Direct
Accessory Output Port 1:      Off
Accessory Output Port 2:      Off
Accessory Output Port 3:      Off
Accessory Input Port:         On



203.08546	3449
203.10698	3334
203.12848	3365
203.14999	3342
203.17151	3328
203.19302	3361
203.21452	3410
203.23604	3427
203.25755	3414
203.27905	3454
203.30057	3413
203.32208	3438
203.34358	3425
203.3651	3446
203.38661	3468
203.40811	3513
203.42963	3538
203.45113	3526
203.47264	3575
203.49416	3598
203.51566	3600
203.53717	3611
203.55867	3610
203.58018	3648
203.60168	3650
203.6232	3668
203.6447	3718
203.66621	3697
203.68771	3760
203.70923	3776
203.73073	3780
203.75224	3806
203.77374	3812
203.79526	3845
203.81676	3877
203.83827	3862
203.85977	3872
203.88127	3915
203.90279	3920
203.92429	3950
203.94579	3967
203.9673	4010
203.9888	3958
204.01031	3980
204.03181	3968
204.05331	4016
204.07481	4038
204.09633	4078
204.11783	4095
204.13933	4137
204.16084	4145
204.18234	4168
204.20384	4158
204.22534	4195
204.24684	4227
204.26836	4221
204.28986	4275
204.31136	4324
204.33286	4326
204.35435	4364
204.37587	4362
204.39737	4369
204.41887	4381
204.44037	4389
204.46187	4442
204.48337	4423
204.50487	4414
204.52637	4469
204.54787	4466
204.56937	4474
204.59087	4503
204.61237	4512
204.63387	4568
204.65536	4630
204.67688	4621
204.69836	4626
204.71986	4619
204.74136	4660
204.76286	4666
204.78436	4726
204.80586	4737
204.82736	4728
204.84886	4766
204.87036	4748
204.89186	4781
204.91336	4807
204.93486	4865
204.95636	4915
204.97784	4927
204.99934	4959
205.02084	4931
205.04234	4980
205.06384	4995
205.08534	5057
205.10683	5047
205.12833	5107
205.14983	5165
205.17133	5115
205.19281	5153
205.21431	5217
205.23581	5239
205.25731	5250
205.27879	5275
205.30029	5280
205.32179	5360
205.34328	5352
205.36478	5353
205.38628	5439
205.40776	5479
205.42926	5445
205.45074	5479
205.47224	5447
205.49374	5507
205.51523	5510
205.53673	5583
205.55821	5642
205.57971	5599
205.6012	5688
205.6227	5744
205.6442	5746
205.66568	5738
205.68718	5789
205.70866	5815
205.73015	5812
205.75165	5835
205.77313	5886
205.79463	5896
205.81612	5933
205.83762	5896
205.8591	5958
205.88058	5988
205.90208	5973
205.92357	6023
205.94507	6055
205.96655	6059
205.98804	6074
206.00954	6106
206.03102	6120
206.05251	6193
206.07401	6222
206.09549	6259
206.11697	6279
206.13846	6311
206.15996	6335
206.18144	6346
206.20293	6371
206.22441	6454
206.24591	6462
206.2674	6525
206.28888	6563
206.31036	6611
206.33185	6646
206.35335	6725
206.37483	6749
206.39632	6786
206.4178	6845
206.43929	6886
206.46077	6930
206.48225	6935
206.50374	6975
206.52522	7016
206.54672	7010
206.56821	7111
206.58969	7186
206.61118	7229
206.63266	7272
206.65414	7344
206.67563	7485
206.69711	7493
206.7186	7483
206.74008	7491
206.76157	7538
206.78304	7558
206.80452	7601
206.826	7669
206.84749	7701
206.86897	7775
206.89046	7804
206.91194	7839
206.93343	7872
206.95491	7907
206.97638	7957
206.99786	8024
207.01935	8024
207.04083	8078
207.06232	8154
207.0838	8215
207.10527	8297
207.12675	8337
207.14824	8308
207.16972	8429
207.19119	8415
207.21268	8426
207.23416	8411
207.25563	8393
207.27711	8552
207.2986	8576
207.32007	8696
207.34155	8715
207.36304	8782
207.38451	8875
207.40599	8958
207.42747	8965
207.44894	9009
207.47043	9010
207.4919	8988
207.51338	9081
207.53487	9063
207.55634	9098
207.57782	9241
207.59929	9343
207.62077	9335
207.64224	9336
207.66373	9428
207.6852	9420
207.70668	9493
207.72815	9569
207.74962	9692
207.7711	9831
207.79257	9871
207.81406	9952
207.83553	9977
207.85701	10019
207.87848	10146
207.89995	10107
207.92143	10153
207.9429	10219
207.96437	10323
207.98586	10304
208.00732	10318
208.02879	10410
208.05028	10459
208.07175	10452
208.09322	10591
208.11469	10730
208.13617	10761
208.15764	10821
208.17911	10816
208.20058	10853
208.22205	10876
208.24353	10987
208.265	11121
208.28647	11294
208.30794	11358
208.32941	11418
208.35088	11349
208.37236	11467
208.39383	11476
208.4153	11551
208.43677	11643
208.45824	11668
208.47971	11696
208.50117	11685
208.52264	11732
208.54411	11775
208.56558	11818
208.58705	11841
208.60852	11832
208.62999	11849
208.65146	11937
208.67293	11952
208.6944	12057
208.71587	12078
208.73734	12197
208.7588	12294
208.78027	12402
208.80174	12518
208.82321	12575
208.84467	12559
208.86613	12634
208.8876	12590
208.90907	12662
208.93054	12641
208.95201	12666
208.97346	12784
208.99493	12750
209.0164	12713
209.03787	12756
209.05934	12883
209.0808	12994
209.10226	13027
209.12373	12958
209.1452	13018
209.16666	13020
209.18813	13184
209.20959	13285
209.23105	13457
209.25252	13518
209.27399	13534
209.29544	13512
209.31691	13573
209.33836	13612
209.35983	13676
209.3813	13763
209.40276	13785
209.42422	13892
209.44568	13937
209.46715	13988
209.4886	13973
209.51007	14035
209.53152	14149
209.55299	14136
209.57445	14369
209.59592	14470
209.61737	14485
209.63884	14382
209.66029	14468
209.68176	14553
209.70322	14592
209.72469	14676
209.74614	14835
209.76759	14932
209.78906	14847
209.81052	14930
209.83197	14972
209.85344	15104
209.87489	15173
209.89635	15235
209.91782	15155
209.93927	15219
209.96072	15221
209.98219	15295
210.00365	15331
210.0251	15438
210.04655	15468
210.06802	15587
210.08948	15699
210.11093	15838
210.13239	15800
210.15384	15817
210.17531	15884
210.19676	16042
210.21822	16086
210.23967	16276
210.26112	16394
210.28258	16475
210.30403	16547
210.32549	16588
210.34695	16718
210.36841	16691
210.38986	16705
210.41132	16622
210.43277	16756
210.45422	16934
210.47568	17069
210.49713	17228
210.51859	17318
210.54004	17336
210.56149	17300
210.58295	17329
210.6044	17433
210.62585	17519
210.64729	17585
210.66875	17723
210.6902	17825
210.71165	17835
210.73311	17909
210.75456	17935
210.77602	18128
210.79747	18291
210.81891	18329
210.84036	18413
210.86182	18521
210.88327	18413
210.90472	18563
210.92616	18666
210.94762	18796
210.96907	18905
210.99052	18845
211.01196	19025
211.03342	19241
211.05487	19249
211.07631	19373
211.09776	19312
211.11922	19387
211.14066	19453
211.16211	19514
211.18356	19533
211.205	19680
211.22646	19715
211.24791	19694
211.26935	19738
211.2908	19535
211.31224	19633
211.33369	19714
211.35513	19877
211.37659	20044
211.39803	20014
211.41948	19988
211.44092	20055
211.46237	20238
211.48381	20165
211.50526	20312
211.5267	20434
211.54816	20521
211.5696	20591
211.59103	20677
211.61249	20660
211.63393	20871
211.65538	20850
211.67682	20861
211.69826	20995
211.71971	21150
211.74115	21264
211.76259	21349
211.78404	21367
211.80548	21277
211.82692	21321
211.84836	21190
211.86981	21208
211.89125	21288
211.91269	21298
211.93413	21396
211.95558	21542
211.97702	21691
211.99846	21673
212.0199	21645
212.04134	21688
212.06277	21677
212.08423	21750
212.10567	21901
212.12711	22103
212.14854	22234
212.16998	22352
212.19142	22412
212.21286	22431
212.2343	22553
212.25574	22650
212.27718	22686
212.29861	22878
212.32005	22836
212.34149	22861
212.36293	22885
212.38437	22795
212.40581	22974
212.42725	23156
212.44868	23146
212.47012	23271
212.49156	23581
212.513	23756
212.53444	23709
212.55588	23690
212.57732	23698
212.59874	23866
212.62018	24036
212.64162	24254
212.66306	24349
212.68449	24508
212.70593	24491
212.72736	24521
212.74879	24522
212.77023	24503
212.79167	24592
212.8131	24770
212.83453	24930
212.85597	24895
212.87741	24856
212.89883	24944
212.92027	25079
212.94171	25192
212.96313	25235
212.98457	25210
213.00601	25203
213.02744	25283
213.04887	25311
213.0703	25209
213.09174	25253
213.11317	25319
213.1346	25457
213.15604	25693
213.17746	25895
213.1989	25999
213.22032	26009
213.24176	26100
213.26318	26084
213.28462	26080
213.30605	25975
213.32748	25976
213.34891	26033
213.37033	26118
213.39177	26039
213.41319	26253
213.43463	26378
213.45605	26441
213.47748	26360
213.49892	26330
213.52034	26394
213.54176	26519
213.5632	26812
213.58463	26975
213.60605	27214
213.62749	27310
213.64891	27324
213.67033	27525
213.69177	27657
213.7132	27590
213.73462	27497
213.75604	27673
213.77747	27868
213.7989	27918
213.82033	27883
213.84175	27945
213.86317	27953
213.8846	27996
213.90602	28060
213.92744	28408
213.94888	28834
213.97031	28863
213.99173	29067
214.01315	28968
214.03458	28860
214.056	28903
214.07742	29245
214.09885	29510
214.12027	29800
214.14169	30030
214.16312	30047
214.18454	30094
214.20596	30211
214.22739	30093
214.24881	30102
214.27023	30158
214.29166	30438
214.31308	30391
214.33449	30259
214.35591	30250
214.37733	30270
214.39876	30463
214.42018	30430
214.4416	30222
214.46303	30118
214.48444	30253
214.50586	30311
214.52728	30482
214.54871	30553
214.57011	30732
214.59154	30876
214.61296	31219
214.63438	31245
214.65579	31255
214.67722	31298
214.69864	31402
214.72005	31310
214.74147	31423
214.76289	31411
214.7843	31432
214.80573	31464
214.82715	31362
214.84856	31084
214.86998	31199
214.89139	31434
214.91281	31515
214.93423	31620
214.95564	31744
214.97707	31666
214.99847	31579
215.0199	31581
215.04131	31732
215.06273	32061
215.08414	32116
215.10556	32200
215.12697	32266
215.14838	32357
215.1698	32242
215.19121	32160
215.21263	32283
215.23404	32161
215.25545	32296
215.27687	32373
215.29828	32353
215.31969	32210
215.34111	32133
215.36252	32248
215.38393	32672
215.40535	32952
215.42676	32933
215.44817	32981
215.46957	32832
215.491	32932
215.51241	33010
215.53381	33230
215.55522	33194
215.57663	33523
215.59805	33646
215.61946	33520
215.64087	33585
215.66228	33589
215.68369	33844
215.70509	33841
215.7265	33940
215.74792	33926
215.76933	33948
215.79074	33983
215.81215	34022
215.83356	34132
215.85497	34200
215.87637	34025
215.89778	33896
215.91919	33905
215.9406	34006
215.96201	34066
215.98341	34287
216.00482	34386
216.02623	34486
216.04762	34518
216.06903	34628
216.09044	34658
216.11185	34597
216.13326	34609
216.15466	34781
216.17607	34929
216.19748	34740
216.21887	34770
216.24028	34776
216.26169	35102
216.2831	34921
216.3045	34985
216.3259	35173
216.34731	35183
216.36871	34994
216.39012	34828
216.41151	34485
216.43292	34601
216.45433	34531
216.47572	34556
216.49713	34689
216.51854	34800
216.53993	34684
216.56134	34581
216.58273	34769
216.60414	34865
216.62555	34940
216.64694	35008
216.66835	34993
216.68974	35029
216.71115	34993
216.73254	34890
216.75395	34995
216.77534	35078
216.79675	35278
216.81815	35023
216.83955	35187
216.86095	35526
216.88235	35844
216.90375	35744
216.92514	35577
216.94655	35693
216.96794	35581
216.98935	35779
217.01074	35714
217.03214	35862
217.05354	35787
217.07494	35768
217.09633	35683
217.11774	35461
217.13913	35412
217.16052	35312
217.18192	35520
217.20332	35710
217.22472	35450
217.24611	35369
217.2675	35317
217.28891	35262
217.3103	35399
217.3317	35398
217.35309	35444
217.37448	35325
217.39587	35112
217.41727	34951
217.43867	34949
217.46007	34845
217.48146	34958
217.50285	34966
217.52425	34929
217.54564	35189
217.56703	35297
217.58842	35224
217.60982	35155
217.63121	35041
217.6526	35009
217.674	34808
217.69539	34531
217.71678	34369
217.73817	34231
217.75957	34160
217.78096	34183
217.80235	34134
217.82373	34112
217.84512	33889
217.86652	33848
217.88791	33662
217.9093	33635
217.93069	33705
217.95209	33889
217.97346	34067
217.99486	33927
218.01625	33842
218.03764	33755
218.05902	33743
218.08041	33756
218.10181	33705
218.1232	33522
218.14458	33581
218.16597	33310
218.18736	33298
218.20874	33230
218.23013	33389
218.25153	33199
218.2729	33076
218.2943	33355
218.31567	33510
218.33707	33600
218.35846	33293
218.37984	33089
218.40123	32968
218.42261	33114
218.444	33173
218.46538	33278
218.48677	33452
218.50815	33577
218.52954	33373
218.55092	33207
218.57231	33132
218.59369	32928
218.61507	32905
218.63646	33125
218.65784	33132
218.67923	32871
218.70061	32591
218.72198	32585
218.74338	32672
218.76476	32470
218.78613	32159
218.80753	32117
218.8289	32127
218.85028	31898
218.87166	31862
218.89305	31773
218.91443	31795
218.93581	31800
218.95718	31904
218.97858	32007
218.99995	31910
219.02133	31972
219.04271	31907
219.06409	31803
219.08546	31606
219.10686	31325
219.12823	31303
219.14961	31331
219.17099	31243
219.19237	30977
219.21375	30967
219.23512	31035
219.2565	30913
219.27788	30864
219.29926	30741
219.32063	30626
219.34201	30660
219.36339	30604
219.38477	30642
219.40614	30956
219.42752	31218
219.4489	31127
219.47028	30920
219.49165	30841
219.51303	30725
219.53439	30532
219.55577	30504
219.57715	30444
219.59853	30365
219.6199	30444
219.64128	30317
219.66264	30057
219.68402	29956
219.7054	29761
219.72678	29948
219.74814	30312
219.76952	30262
219.79089	30275
219.81227	30089
219.83363	29906
219.85501	29791
219.87639	29786
219.89775	29945
219.91913	30168
219.94051	30386
219.96187	30296
219.98325	30200
220.00461	30333
220.02599	30284
220.04735	30154
220.06873	30030
220.0901	29940
220.11147	29934
220.13284	29800
220.15421	29708
220.17558	29596
220.19695	29659
220.21832	29517
220.23969	29326
220.26105	29234
220.28242	29211
220.30379	29200
220.32516	29139
220.34653	29248
220.36789	29261
220.38927	29332
220.41063	29392
220.43199	29642
220.45337	29534
220.47473	29418
220.49609	29433
220.51747	29312
220.53883	29312
220.5602	29105
220.58156	29093
220.60294	29123
220.6243	29071
220.64566	28704
220.66702	28602
220.68839	28739
220.70976	28938
220.73112	28923
220.75249	28874
220.77385	28960
220.79521	28789
220.81657	28709
220.83794	28452
220.8593	28548
220.88066	28540
220.90202	28580
220.92339	28736
220.94475	28931
220.96611	28737
220.98747	28574
221.00883	28473
221.0302	28600
221.05156	28521
221.07292	28647
221.09428	28620
221.11565	28605
221.13701	28541
221.15837	28379
221.17973	28438
221.2011	28648
221.22246	28777
221.2438	28794
221.26517	28667
221.28653	28799
221.30789	28679
221.32925	28645
221.3506	28612
221.37196	28598
221.39333	28680
221.41469	28574
221.43604	28485
221.4574	28580
221.47876	28669
221.50011	28831
221.52147	28840
221.54283	28739
221.56418	28643
221.58554	28550
221.6069	28442
221.62825	28629
221.64961	28692
221.67096	28555
221.69232	28303
221.71368	28306
221.73503	28345
221.75639	28388
221.77774	28677
221.7991	28575
221.82045	28698
221.84181	28707
221.86316	28739
221.88451	28793
221.90587	28794
221.92722	28811
221.94858	28927
221.96992	28874
221.99127	28974
222.01263	28876
222.03398	28916
222.05534	29073
222.07669	29136
222.09804	29106
222.11938	29239
222.14075	29426
222.16209	29474
222.18344	29310
222.2048	29060
222.22615	28835
222.2475	28683
222.26884	28697
222.29019	28669
222.31155	28884
222.3329	28856
222.35425	28688
222.3756	28720
222.39694	28836
222.41829	29049
222.43964	29075
222.46098	29147
222.48235	29215
222.50369	29137
222.52504	29127
222.54639	29099
222.56773	29127
222.58908	29230
222.61043	29293
222.63177	29244
222.65312	29517
222.67447	29849
222.69582	29868
222.71715	29692
222.73849	29666
222.75984	29701
222.78119	29728
222.80254	29752
222.82388	29961
222.84523	30075
222.86658	30121
222.88791	30032
222.90926	30083
222.9306	30035
222.95195	29991
222.9733	30107
222.99463	30378
223.01598	30344
223.03732	30217
223.05867	30116
223.08	30137
223.10135	30227
223.1227	30331
223.14403	30441
223.16537	30319
223.18672	30261
223.20805	30109
223.2294	30115
223.25073	29988
223.27208	30145
223.29343	30242
223.31476	30277
223.33611	30257
223.35744	30346
223.37878	30430
223.40012	30586
223.42146	30459
223.44279	30372
223.46414	30242
223.48547	30216
223.50682	30102
223.52815	30028
223.54948	30016
223.57083	30060
223.59216	30232
223.61349	30223
223.63484	30296
223.65617	30273
223.67752	30316
223.69885	30315
223.72018	30406
223.74152	30673
223.76286	31096
223.78419	31336
223.80553	31364
223.82686	31189
223.84821	31095
223.86954	31047
223.89087	31055
223.9122	31133
223.93353	31192
223.95488	31205
223.97621	31172
223.99754	30939
224.01888	30866
224.04021	30778
224.06154	30704
224.08287	30957
224.1042	31193
224.12553	31328
224.14687	31374
224.1682	31149
224.18953	31029
224.21086	31039
224.23219	31010
224.25352	31303
224.27486	31494
224.29619	31852
224.31752	31880
224.33885	31822
224.36018	31914
224.38152	31975
224.40285	31900
224.42418	31945
224.4455	32103
224.46683	32023
224.48816	31696
224.50949	31500
224.53082	31468
224.55214	31293
224.57347	31300
224.5948	31362
224.61613	31410
224.63745	31488
224.65878	31516
224.68011	31389
224.70145	31592
224.72276	31602
224.74409	31899
224.76541	32195
224.78674	32320
224.80807	32267
224.82939	32343
224.85072	32477
224.87204	32681
224.89337	32468
224.9147	32092
224.93602	32182
224.95735	32198
224.97867	32166
225	31909
225.02132	32118
225.04265	32509
225.06396	32647
225.08528	32704
225.10661	32697
225.12793	32709
225.14926	32583
225.17058	32674
225.19189	32920
225.21323	33113
225.23454	33097
225.25586	33116
225.27719	33097
225.29851	33229
225.31982	33107
225.34116	32939
225.36247	32986
225.38379	32922
225.40511	32909
225.42644	32921
225.44775	32829
225.46907	32852
225.49039	32815
225.5117	32734
225.53304	33024
225.55435	33131
225.57567	33133
225.59698	33237
225.6183	33124
225.63962	32986
225.66093	33143
225.68225	33126
225.70357	33283
225.72488	33450
225.7462	33490
225.76752	33444
225.78883	33487
225.81015	33330
225.83147	33362
225.85278	33374
225.8741	33316
225.89542	33507
225.91673	33336
225.93805	33329
225.95937	33295
225.98068	33346
226.00198	33279
226.0233	33222
226.04462	33036
226.06593	33117
226.08725	33386
226.10855	33465
226.12987	33334
226.15118	33195
226.1725	33378
226.1938	33596
226.21512	33714
226.23643	33645
226.25775	33717
226.27905	33550
226.30037	33365
226.32167	33447
226.34299	33405
226.3643	33332
226.3856	33315
226.40692	33317
226.42824	33118
226.44954	32882
226.47086	33059
226.49216	33039
226.51347	33018
226.53477	32790
226.55609	32686
226.57739	32773
226.59871	32570
226.62001	32331
226.64131	32013
226.66263	32223
226.68393	32223
226.70525	32208
226.72655	32311
226.74785	32474
226.76917	32265
226.79047	32160
226.81177	32244
226.83308	32155
226.85439	32074
226.87569	32102
226.897	32166
226.9183	32369
226.93961	32128
226.96091	32118
226.98222	32312
227.00352	32555
227.02483	32689
227.04613	32598
227.06743	32504
227.08873	32474
227.11005	32245
227.13135	32094
227.15265	32122
227.17395	32299
227.19525	32357
227.21655	32362
227.23785	32386
227.25916	32558
227.28046	32637
227.30176	32719
227.32306	32712
227.34436	32701
227.36566	32529
227.38696	32518
227.40826	32751
227.42957	32793
227.45087	32856
227.47217	32750
227.49347	32615
227.51476	32521
227.53606	32382
227.55736	32328
227.57866	32708
227.59996	32823
227.62126	32806
227.64255	32777
227.66385	32852
227.68515	32937
227.70645	32918
227.72774	33054
227.74904	33197
227.77034	33323
227.79163	33287
227.81293	33125
227.83423	32990
227.85551	33076
227.87682	32902
227.89812	33082
227.9194	33281
227.9407	33750
227.96199	33678
227.98329	33378
228.00459	33336
228.02588	33165
228.04718	33236
228.06847	33211
228.08977	33311
228.11105	33484
228.13234	33485
228.15364	33558
228.17493	33572
228.19623	33720
228.21751	34018
228.23882	33902
228.2601	34135
228.28139	34202
228.30269	34227
228.32397	34276
228.34526	34256
228.36656	34142
228.38785	34093
228.40913	33911
228.43042	34305
228.45172	34693
228.47301	34989
228.49429	34863
228.51558	34692
228.53688	34754
228.55817	34790
228.57945	35079
228.60074	35084
228.62202	35381
228.64331	35743
228.6646	35519
228.6859	35733
228.70718	35602
228.72847	35698
228.74976	35836
228.77104	36023
228.79233	36193
228.81361	36245
228.8349	36022
228.85619	36111
228.87747	36305
228.89876	36277
228.92004	36452
228.94133	36433
228.9626	36666
228.98389	36571
229.00517	36589
229.02646	36537
229.04774	36750
229.06903	36999
229.09032	36996
229.11159	37459
229.13287	37464
229.15416	37523
229.17545	37646
229.19673	37910
229.218	37796
229.23929	37842
229.26057	37625
229.28185	37811
229.30313	37625
229.32442	37564
229.34569	37612
229.36697	37752
229.38826	37748
229.40953	37767
229.43082	37492
229.45209	37649
229.47337	37534
229.49466	37496
229.51593	37601
229.53722	37954
229.55849	38330
229.57977	38457
229.60104	38289
229.62233	38078
229.6436	37687
229.66489	37604
229.68616	37506
229.70743	37261
229.72871	37378
229.74998	37284
229.77126	37339
229.79254	36959
229.81381	36818
229.8351	36865
229.85637	36681
229.87764	36973
229.89891	36945
229.9202	37073
229.94147	36767
229.96274	36717
229.98401	36214
230.00529	36514
230.02657	36588
230.04784	36732
230.06911	37029
230.09038	36925
230.11165	37153
230.13293	36654
230.15421	36869
230.17548	36622
230.19675	36592
230.21802	36493
230.23929	36461
230.26056	36366
230.28183	36093
230.3031	35776
230.32437	35930
230.34564	35686
230.36691	35459
230.38818	35388
230.40945	35379
230.43073	35516
230.452	35556
230.47327	35472
230.49454	35469
230.51579	35434
230.53706	35435
230.55833	35804
230.57961	35969
230.60088	35853
230.62215	35897
230.6434	36022
230.66467	35638
230.68594	35711
230.70721	35608
230.72847	35520
230.74974	35614
230.77101	35291
230.79227	35253
230.81354	35401
230.83481	35536
230.85606	35758
230.87733	35667
230.89861	35880
230.91986	35745
230.94113	35706
230.96239	35462
230.98366	35727
231.00491	35777
231.02618	35856
231.04744	35835
231.06871	36033
231.08997	36197
231.11124	36254
231.13249	35972
231.15376	36169
231.17502	36151
231.19629	36154
231.21754	36435
231.2388	36286
231.26007	36301
231.28133	36376
231.30258	36228
231.32385	36601
231.34511	36827
231.36636	36942
231.38763	36779
231.40889	36886
231.43015	36823
231.4514	36926
231.47266	37136
231.49393	37474
231.51518	37416
231.53644	37587
231.55769	37782
231.57895	37729
231.6002	37698
231.62148	37951
231.64273	37905
231.66399	37923
231.68524	38140
231.7065	37962
231.72775	38162
231.74901	38111
231.77026	38082
231.79152	38224
231.81277	37897
231.83403	37653
231.85529	37658
231.87654	37787
231.8978	38162
231.91905	38270
231.94031	38049
231.96155	38285
231.9828	38306
232.00406	38317
232.02531	38438
232.04657	38114
232.06783	38296
232.08907	38549
232.11032	38455
232.13158	38495
232.15283	38329
232.17407	38590
232.19533	38470
232.21658	38529
232.23784	38521
232.25908	38366
232.28033	38689
232.30159	38686
232.32283	38643
232.34409	38430
232.36533	38537
232.38658	38332
232.40784	38236
232.42908	37779
232.45033	37768
232.47157	37670
232.49283	37900
232.51407	38288
232.53532	38272
232.55656	38159
232.57782	38033
232.59906	37894
232.6203	37762
232.64156	37916
232.6628	38288
232.68405	38215
232.70529	38407
232.72653	38640
232.74779	38382
232.76903	38660
232.79027	38474
232.81152	39282
232.83276	38987
232.854	39126
232.87524	39026
232.8965	38908
232.91774	38757
232.93898	38771
232.96022	38711
232.98146	38998
233.00272	38927
233.02396	39077
233.0452	39249
233.06644	39500
233.08768	39430
233.10892	39672
233.13016	39824
233.1514	39810
233.17264	40039
233.19388	40107
233.21512	40186
233.23636	40436
233.2576	40164
233.27884	40222
233.30008	40220
233.32132	40191
233.34256	40173
233.3638	40538
233.38504	40483
233.40628	40573
233.42752	40582
233.44876	40857
233.46999	40500
233.49123	40700
233.51247	40905
233.53371	40828
233.55495	40967
233.57617	40851
233.59741	41000
233.61865	40999
233.63989	40955
233.66112	41245
233.68236	41267
233.7036	41294
233.72482	41612
233.74606	41570
233.7673	41385
233.78853	41051
233.80977	40991
233.83099	40961
233.85223	40873
233.87347	41066
233.8947	41013
233.91594	41083
233.93716	41101
233.9584	41236
233.97963	41314
234.00087	41390
234.02209	41441
234.04332	41371
234.06456	41439
234.08578	41473
234.10703	41293
234.12825	41493
234.14948	41230
234.17072	41141
234.19194	41082
234.21317	41711
234.23441	41863
234.25563	42089
234.27686	42077
234.29808	42210
234.31932	42005
234.34055	41692
234.36177	42052
234.383	42153
234.40424	42388
234.42546	42724
234.44669	42490
234.46791	42438
234.48914	42764
234.51036	42579
234.53159	42584
234.55281	42446
234.57404	42768
234.59526	42693
234.61649	42775
234.63773	42662
234.65895	42663
234.68016	42791
234.70139	42408
234.72261	42394
234.74384	42542
234.76506	42278
234.78629	42002
234.80751	42128
234.82874	42255
234.84996	42099
234.87119	42622
234.89241	42409
234.91362	42914
234.93484	42577
234.95607	42686
234.97729	42614
234.9985	42439
235.01973	42522
235.04095	42484
235.06218	42336
235.08339	42362
235.10461	42300
235.12584	42106
235.14705	42159
235.16827	42010
235.1895	41917
235.21071	42002
235.23193	41981
235.25314	41980
235.27437	41645
235.29559	41927
235.3168	42105
235.33803	42717
235.35924	42521
235.38046	42545
235.40167	42357
235.4229	42301
235.44411	42128
235.46532	41855
235.48654	42050
235.50775	42232
235.52898	42232
235.55019	42349
235.5714	42178
235.59262	42047
235.61383	41966
235.63504	42036
235.65627	41852
235.67747	42320
235.69868	42114
235.71989	42201
235.74112	42084
235.76233	41948
235.78354	42040
235.80475	42201
235.82596	42481
235.84718	42450
235.86839	42842
235.8896	42374
235.91081	42431
235.93202	42587
235.95323	42624
235.97444	42415
235.99565	42538
236.01686	42337
236.03807	41988
236.05928	41908
236.08049	41857
236.1017	41707
236.12291	41560
236.14412	41200
236.16533	41399
236.18654	41016
236.20775	41520
236.22896	41246
236.25017	41350
236.27136	41242
236.29257	41364
236.31378	41402
236.33499	41754
236.3562	41716
236.3774	41731
236.39861	41557
236.41982	41481
236.44102	41571
236.46222	41308
236.48343	41232
236.50464	41393
236.52583	41181
236.54704	40779
236.56825	40817
236.58945	40579
236.61066	40613
236.63187	40807
236.65306	40475
236.67427	40574
236.69547	40277
236.71667	40213
236.73787	39799
236.75908	39991
236.78027	40024
236.80148	40146
236.82268	39929
236.84389	39761
236.86508	39818
236.88629	39292
236.90749	39573
236.92868	39228
236.94989	39164
236.97108	39175
236.99228	39420
237.01349	39242
237.03468	39275
237.05588	39077
237.07709	38757
237.09828	39226
237.11948	38872
237.14067	38782
237.16187	38882
237.18307	38684
237.20427	38338
237.22546	38371
237.24666	38156
237.26785	38366
237.28905	38533
237.31024	38403
237.33145	38386
237.35265	38460
237.37384	38204
237.39503	38298
237.41623	38263
237.43742	38184
237.45862	37960
237.47981	37981
237.50101	37590
237.5222	37793
237.5434	37908
237.56458	37534
237.58577	37504
237.60696	37232
237.62816	37144
237.64935	37117
237.67055	37328
237.69174	37330
237.71292	37129
237.73412	37221
237.75531	36946
237.7765	37145
237.7977	37013
237.81888	36825
237.84007	36812
237.86127	36693
237.88245	36732
237.90364	36272
237.92484	36136
237.94601	35941
237.96721	35963
237.9884	35656
238.00958	35713
238.03078	35978
238.05196	35700
238.07315	35969
238.09433	35671
238.11552	35607
238.1367	35372
238.1579	35074
238.17908	34733
238.20027	34727
238.22145	34299
238.24265	34284
238.26382	34390
238.285	34501
238.3062	34547
238.32738	34326
238.34857	34247
238.36975	34369
238.39093	34108
238.41211	34148
238.4333	33974
238.45448	34203
238.47566	33993
238.49686	33824
238.51804	33673
238.53922	33871
238.56039	33901
238.58157	34059
238.60275	33985
238.62395	33727
238.64513	33597
238.66631	33267
238.68748	32910
238.70866	32857
238.72984	32516
238.75102	32537
238.7722	32392
238.79338	32635
238.81456	32750
238.83574	32579
238.85692	32378
238.8781	32389
238.89928	32479
238.92046	32384
238.94164	32304
238.96281	32193
238.98399	32182
239.00516	31792
239.02634	31812
239.04752	31756
239.0687	31536
239.08987	31243
239.11105	31185
239.13222	31115
239.1534	31060
239.17458	30941
239.19576	31034
239.21692	30897
239.2381	30955
239.25928	30844
239.28044	30784
239.30162	30717
239.3228	30575
239.34396	30327
239.36514	30360
239.38631	30222
239.40749	30131
239.42865	30065
239.44983	29961
239.47099	30130
239.49217	30124
239.51334	30012
239.53452	29673
239.55568	29330
239.57686	29113
239.59802	29125
239.6192	29159
239.64037	29232
239.66153	29210
239.68271	29064
239.70387	28955
239.72504	28897
239.74622	28919
239.76738	28770
239.78854	28695
239.80972	28675
239.83089	28407
239.85205	28427
239.87321	28343
239.89438	28108
239.91556	27794
239.93672	27498
239.95789	27436
239.97905	27579
240.00021	27546
240.02138	27506
240.04254	27398
240.06372	27240
240.08488	27068
240.10605	27099
240.12721	27126
240.14838	27186
240.16954	27247
240.1907	27191
240.21187	26920
240.23303	26842
240.25418	26814
240.27534	26708
240.29651	26599
240.31767	26447
240.33884	26502
240.36	26255
240.38116	26117
240.40233	26007
240.42348	25808
240.44464	25659
240.46581	25606
240.48697	25571
240.50812	25394
240.52928	25221
240.55045	25120
240.57161	25068
240.59276	24958
240.61392	24973
240.63509	25016
240.65623	25024
240.6774	24818
240.69855	24680
240.71971	24534
240.74088	24593
240.76202	24398
240.78319	24217
240.80434	24040
240.8255	23917
240.84665	23816
240.86781	23682
240.88896	23417
240.91013	23370
240.93127	23336
240.95242	23086
240.97359	22947
240.99474	22830
241.01588	22700
241.03705	22526
241.0582	22386
241.07935	22314
241.10051	22312
241.12166	22304
241.14281	22258
241.16397	22122
241.18512	21922
241.20627	21721
241.22742	21463
241.24857	21437
241.26973	21402
241.29088	21389
241.31203	21206
241.33318	21100
241.35432	20829
241.37547	20734
241.39662	20637
241.41777	20791
241.43892	20688
241.46007	20739
241.48122	20601
241.50237	20414
241.52351	20299
241.54466	20211
241.56581	20144
241.58696	20336
241.60811	20357
241.62926	20277
241.65041	20134
241.67155	20108
241.6927	20139
241.71384	20010
241.73499	19929
241.75613	19863
241.77728	19670
241.79843	19550
241.81956	19322
241.84071	19256
241.86186	19260
241.88301	19058
241.90414	18805
241.92529	18687
241.94644	18645
241.96758	18655
241.98872	18659
242.00986	18682
242.03101	18510
242.05215	18421
242.07329	18487
242.09444	18441
242.11557	18306
242.13672	18221
242.15785	18119
242.179	18216
242.20013	18080
242.22128	17996
242.24242	17832
242.26357	17928
242.2847	17759
242.30583	17625
242.32698	17585
242.34811	17541
242.36925	17442
242.3904	17430
242.41153	17357
242.43266	17260
242.45381	17149
242.47495	17035
242.49608	16889
242.51721	16784
242.53835	16665
242.55949	16659
242.58063	16642
242.60176	16584
242.62289	16495
242.64403	16342
242.66516	16235
242.68629	16079
242.70744	16033
242.72858	16061
242.74971	16059
242.77084	16035
242.79198	15874
242.81311	15687
242.83424	15650
242.85538	15581
242.87651	15690
242.89763	15562
242.91876	15509
242.9399	15412
242.96103	15337
242.98216	15229
243.0033	15020
243.02443	15067
243.04556	14951
243.06668	14885
243.08781	14889
243.10895	14862
243.13008	14888
243.1512	14730
243.17233	14670
243.19347	14615
243.2146	14407
243.23572	14370
243.25685	14323
243.27797	14238
243.2991	14217
243.32024	14137
243.34135	14092
243.36249	13975
243.38361	13890
243.40474	13816
243.42587	13810
243.44699	13804
243.46812	13688
243.48924	13523
243.51036	13478
243.53149	13450
243.55261	13422
243.57375	13287
243.59486	13189
243.616	13135
243.63712	13011
243.65823	12960
243.67937	12844
243.70049	12829
243.7216	12771
243.74272	12646
243.76385	12615
243.78497	12609
243.80609	12621
243.82721	12569
243.84834	12397
243.86946	12203
243.89058	12068
243.9117	11992
243.93282	11831
243.95393	11860
243.97505	11722
243.99619	11633
244.0173	11613
244.03842	11608
244.05954	11562
244.08066	11521
244.10178	11404
244.12289	11355
244.14401	11315
244.16513	11291
244.18625	11338
244.20735	11331
244.22847	11325
244.24959	11230
244.27071	11163
244.29182	11131
244.31294	11110
244.33406	11034
244.35516	10978
244.37628	10877
244.3974	10836
244.41852	10769
244.43964	10715
244.46074	10636
244.48186	10650
244.50298	10645
244.52408	10630
244.5452	10591
244.56631	10523
244.58742	10436
244.60854	10363
244.62964	10342
244.65076	10410
244.67188	10371
244.69298	10315
244.7141	10324
244.7352	10253
244.75632	10169
244.77742	10096
244.79854	10085
244.81964	9974
244.84074	9880
244.86186	9913
244.88297	9795
244.90408	9782
244.92519	9707
244.94629	9675
244.96741	9615
244.98851	9642
245.00961	9589
245.03073	9454
245.05183	9415
245.07294	9369
245.09404	9283
245.11516	9213
245.13626	9182
245.15736	9252
245.17847	9316
245.19957	9268
245.22067	9222
245.24178	9185
245.26289	9088
245.284	8970
245.3051	8909
245.3262	8883
245.34731	8868
245.36841	8803
245.38951	8773
245.41061	8702
245.43172	8598
245.45282	8597
245.47392	8616
245.49503	8604
245.51611	8566
245.53722	8515
245.55832	8419
245.57942	8393
245.60052	8400
245.62163	8380
245.64272	8311
245.66382	8269
245.68492	8194
245.70602	8197
245.72711	8131
245.74821	8128
245.76932	8072
245.79042	8043
245.81151	8020
245.83261	7979
245.85371	8006
245.8748	7975
245.8959	7978
245.91699	7939
245.9381	7876
245.95918	7834
245.98029	7784
246.00137	7775
246.02248	7738
246.04356	7722
246.06467	7707
246.08575	7675
246.10686	7641
246.12794	7606
246.14905	7590
246.17014	7524
246.19122	7520
246.21233	7475
246.23341	7427
246.2545	7400
246.2756	7333
246.29669	7293
246.31778	7264
246.33887	7286
246.35997	7263
246.38106	7233
246.40215	7228
246.42323	7180
246.44432	7164
246.46542	7087
246.48651	7124
246.5076	7101
246.52869	7092
246.54977	7076
246.57086	7059
246.59195	6990
246.61304	7018
246.63412	6991
246.65521	6972
246.6763	6934
246.69739	6861
246.71848	6713
