Date and Time:                Mon Oct 10 12:38:47.000 2022
Software Version:             4.31.30023.0
Temperature (C):              -40
Model:                        DU940P_BU2
Data Type:                    Counts
Acquisition Mode:             Single Scan
Trigger Mode:                 Internal
Exposure Time (secs):         55
Readout Mode:                 Full Vertical Binning
Horizontal binning:           1
Extended Dynamic Range:       off
Horizontally flipped:         false
Vertical Shift Speed (usecs): 14.51
Pixel Readout Rate (MHz):     3
Baseline Clamp:               ON
Clock Amplitude:              Normal
Output Amplifier:             High Capacity
Serial Number:                23634
Pre-Amplifier Gain:           1.000000
Spurious Noise Filter Mode:   No Filter
Photon counted:               false
Data Averaging Filter Mode:   No Filter
SR500i:
Serial Number:                
Wavelength (nm):              214
Grating Groove Density (l/mm):1199.47
Grating Blaze:                500
Output Flipper Port:          Direct
Accessory Output Port 1:      Off
Accessory Output Port 2:      Off
Accessory Output Port 3:      Off
Accessory Input Port:         On



192.0349	529
192.05646	523
192.078	505
192.09956	496
192.12112	505
192.14268	497
192.16425	492
192.18581	472
192.20735	458
192.22891	454
192.25047	462
192.27203	484
192.29358	459
192.31514	474
192.3367	477
192.35826	464
192.37981	477
192.40137	484
192.42293	502
192.44449	468
192.46603	466
192.48759	476
192.50916	496
192.5307	503
192.55226	486
192.57381	481
192.59537	463
192.61693	491
192.63847	494
192.66003	502
192.68159	480
192.70314	470
192.7247	469
192.74625	493
192.76781	503
192.78935	521
192.81091	520
192.83246	506
192.85402	495
192.87556	487
192.89713	479
192.91867	507
192.94023	513
192.96178	518
192.98334	523
193.00488	519
193.02643	497
193.04799	479
193.06953	501
193.09109	503
193.11264	517
193.13419	518
193.15575	523
193.17729	529
193.19884	523
193.2204	523
193.24194	510
193.26349	525
193.28505	520
193.30659	513
193.32814	529
193.34969	519
193.37125	548
193.39279	520
193.41434	529
193.43588	513
193.45744	518
193.47899	514
193.50053	527
193.52208	534
193.54362	531
193.56517	537
193.58673	550
193.60828	529
193.62982	541
193.65137	541
193.67291	537
193.69446	517
193.716	513
193.73755	516
193.75909	525
193.78064	536
193.80219	517
193.82375	528
193.84529	527
193.86684	523
193.88838	527
193.90993	533
193.93147	533
193.953	535
193.97455	533
193.99609	523
194.01764	533
194.03918	527
194.06073	531
194.08228	533
194.10382	545
194.12537	524
194.14691	530
194.16846	537
194.18999	543
194.21153	534
194.23308	539
194.25462	530
194.27617	526
194.29771	535
194.31924	540
194.34079	540
194.36234	553
194.38388	552
194.40541	540
194.42696	537
194.4485	532
194.47005	528
194.49158	532
194.51312	498
194.53467	494
194.5562	508
194.57774	514
194.59929	506
194.62082	496
194.64236	515
194.66391	514
194.68544	490
194.70699	518
194.72852	548
194.75006	531
194.77161	493
194.79314	503
194.81468	536
194.83621	551
194.85776	546
194.87929	504
194.90083	499
194.92236	528
194.94391	536
194.96544	544
194.98698	535
195.00851	533
195.03006	516
195.05159	522
195.07312	537
195.09467	543
195.1162	556
195.13774	549
195.15927	558
195.1808	532
195.20235	531
195.22388	544
195.24541	569
195.26695	561
195.28848	566
195.31001	569
195.33156	559
195.35309	551
195.37462	538
195.39616	545
195.41769	559
195.43922	570
195.46075	558
195.48228	584
195.50383	573
195.52536	563
195.54689	559
195.56842	566
195.58995	555
195.6115	570
195.63303	575
195.65456	589
195.67609	596
195.69762	574
195.71915	570
195.74068	580
195.76221	572
195.78374	563
195.80528	569
195.82681	566
195.84834	582
195.86987	569
195.8914	595
195.91293	583
195.93446	578
195.95599	585
195.97752	582
195.99905	600
196.02058	591
196.0421	585
196.06363	595
196.08516	598
196.10669	595
196.12822	606
196.14975	594
196.17128	592
196.19281	602
196.21434	598
196.23586	604
196.25739	597
196.27892	597
196.30045	609
196.32198	620
196.34351	616
196.36502	610
196.38655	616
196.40808	613
196.42961	618
196.45113	622
196.47266	619
196.49419	608
196.5157	623
196.53723	630
196.55876	635
196.58029	628
196.60181	633
196.62334	634
196.64485	624
196.66638	646
196.68791	632
196.70943	630
196.73096	631
196.75249	648
196.774	643
196.79553	648
196.81705	651
196.83858	645
196.86009	649
196.88162	649
196.90314	650
196.92467	655
196.94618	648
196.96771	627
196.98923	629
197.01076	633
197.03227	640
197.0538	666
197.07532	638
197.09683	657
197.11836	648
197.13988	637
197.16141	642
197.18292	659
197.20444	666
197.22597	647
197.24748	672
197.269	659
197.29053	670
197.31204	683
197.33356	682
197.35509	649
197.3766	663
197.39812	682
197.41963	672
197.44116	712
197.46268	682
197.48419	681
197.50571	674
197.52722	687
197.54875	677
197.57027	704
197.59178	699
197.6133	703
197.63481	684
197.65633	696
197.67784	707
197.69937	712
197.72089	756
197.7424	718
197.76392	716
197.78543	735
197.80695	720
197.82846	710
197.84998	725
197.87149	722
197.89301	728
197.91452	733
197.93604	725
197.95755	729
197.97906	739
198.00058	736
198.02209	741
198.04361	746
198.06512	738
198.08664	749
198.10814	754
198.12965	745
198.15117	741
198.17268	744
198.1942	762
198.21571	755
198.23723	752
198.25873	754
198.28024	759
198.30176	747
198.32327	774
198.34479	768
198.36629	770
198.3878	774
198.40932	781
198.43083	776
198.45233	786
198.47385	777
198.49536	787
198.51686	788
198.53838	796
198.55989	807
198.58139	800
198.60291	798
198.62442	821
198.64592	819
198.66743	808
198.68895	822
198.71045	821
198.73196	826
198.75346	827
198.77498	820
198.79648	831
198.81799	846
198.83949	842
198.86101	828
198.88251	850
198.90402	845
198.92552	835
198.94704	848
198.96854	842
198.99005	835
199.01155	852
199.03307	853
199.05457	862
199.07607	860
199.09758	875
199.11908	867
199.14059	860
199.16209	881
199.18359	907
199.20511	887
199.22661	885
199.24811	891
199.26961	910
199.29112	912
199.31262	924
199.33412	904
199.35564	909
199.37714	902
199.39864	929
199.42014	964
199.44164	944
199.46315	937
199.48465	937
199.50615	927
199.52765	939
199.54915	948
199.57065	953
199.59216	944
199.61366	945
199.63516	948
199.65666	954
199.67816	971
199.69966	957
199.72116	958
199.74266	983
199.76416	971
199.78566	992
199.80716	999
199.82866	1008
199.85016	1017
199.87166	1012
199.89316	1020
199.91466	1029
199.93616	1027
199.95766	1033
199.97916	1027
200.00066	1040
200.02216	1031
200.04366	1056
200.06516	1066
200.08664	1070
200.10814	1070
200.12964	1059
200.15114	1065
200.17264	1080
200.19414	1091
200.21562	1099
200.23712	1112
200.25862	1100
200.28012	1081
200.30161	1099
200.3231	1102
200.3446	1116
200.3661	1113
200.38759	1117
200.40909	1139
200.43059	1168
200.45207	1145
200.47357	1146
200.49507	1159
200.51656	1168
200.53806	1176
200.55956	1171
200.58104	1166
200.60254	1184
200.62402	1188
200.64552	1187
200.66702	1205
200.68851	1208
200.71001	1276
200.73149	1220
200.75299	1227
200.77448	1258
200.79597	1248
200.81746	1227
200.83896	1226
200.86044	1246
200.88194	1251
200.90343	1252
200.92491	1269
200.94641	1305
200.9679	1279
200.9894	1268
201.01088	1281
201.03236	1286
201.05386	1327
201.07535	1307
201.09683	1331
201.11833	1337
201.13982	1356
201.1613	1348
201.1828	1355
201.20428	1390
201.22577	1371
201.24725	1392
201.26875	1392
201.29024	1403
201.31172	1427
201.33321	1399
201.35469	1426
201.37619	1433
201.39767	1433
201.41916	1443
201.44064	1459
201.46213	1472
201.48361	1496
201.50511	1499
201.5266	1513
201.54808	1508
201.56956	1531
201.59105	1546
201.61253	1538
201.63402	1549
201.6555	1558
201.67699	1554
201.69847	1573
201.71996	1577
201.74144	1594
201.76292	1635
201.78441	1621
201.80589	1644
201.82738	1636
201.84886	1643
201.87035	1640
201.89183	1689
201.9133	1678
201.93478	1701
201.95627	1692
201.97775	1697
201.99924	1710
202.02072	1716
202.04221	1750
202.06367	1734
202.08516	1737
202.10664	1751
202.12813	1771
202.14961	1780
202.17108	1806
202.19257	1805
202.21405	1811
202.23553	1806
202.257	1815
202.27849	1836
202.29997	1860
202.32144	1856
202.34293	1844
202.36441	1850
202.38588	1869
202.40736	1872
202.42883	1902
202.45032	1924
202.4718	1905
202.49327	1923
202.51476	2168
202.53622	1923
202.55771	1974
202.57918	1980
202.60066	2020
202.62213	2037
202.64362	2040
202.66508	2063
202.68657	2067
202.70804	2046
202.72952	2121
202.75099	2087
202.77248	2116
202.79395	2125
202.81543	2129
202.8369	2142
202.85837	2152
202.87985	2185
202.90132	2218
202.92279	2239
202.94427	2260
202.96574	2267
202.98721	2275
203.0087	2292
203.03017	2316
203.05164	2330
203.0731	2380
203.09459	2392
203.11606	2425
203.13753	2412
203.159	2409
203.18048	2442
203.20195	2475
203.22342	2450
203.24489	2469
203.26636	2508
203.28783	2500
203.30931	2507
203.33078	2520
203.35225	2538
203.37372	2574
203.39519	2553
203.41666	2573
203.43813	2604
203.45959	2593
203.48106	2623
203.50253	2629
203.524	2671
203.54547	2694
203.56694	2698
203.58841	2722
203.60988	2787
203.63135	2759
203.65282	2773
203.67429	2807
203.69576	2828
203.71722	2820
203.73869	2844
203.76016	2868
203.78163	2903
203.80309	2860
203.82455	2870
203.84602	2916
203.86749	2950
203.88896	2977
203.91043	2974
203.93188	2990
203.95335	3012
203.97482	3020
203.99629	3065
204.01775	3074
204.03922	3132
204.06068	3165
204.08215	3163
204.10361	3204
204.12508	3201
204.14655	3235
204.168	3254
204.18947	3256
204.21094	3286
204.23239	3289
204.25386	3299
204.27531	3343
204.29678	3350
204.31825	3369
204.33971	3389
204.36118	3449
204.38263	3485
204.4041	3505
204.42555	3557
204.44702	3549
204.46848	3596
204.48994	3617
204.5114	3654
204.53287	3669
204.55432	3719
204.57579	3758
204.59724	3780
204.6187	3802
204.64017	3835
204.66162	3876
204.68309	3888
204.70454	3930
204.726	3928
204.74747	3937
204.76892	3969
204.79037	4008
204.81184	4065
204.8333	4093
204.85475	4088
204.87621	4081
204.89767	4160
204.91913	4206
204.94058	4234
204.96204	4263
204.98351	4311
205.00496	4343
205.02641	4397
205.04787	4448
205.06932	4460
205.09077	4475
205.11224	4563
205.1337	4583
205.15515	4614
205.17661	4629
205.19806	4637
205.21951	4697
205.24097	4735
205.26242	4783
205.28387	4802
205.30533	4870
205.32678	4878
205.34824	4873
205.36969	4924
205.39114	4936
205.4126	4970
205.43405	5011
205.45551	5046
205.47696	5085
205.49841	5102
205.51987	5123
205.54132	5149
205.56277	5251
205.58421	5309
205.60567	5351
205.62712	5364
205.64857	5417
205.67003	5476
205.69148	5515
205.71292	5556
205.73438	5605
205.75583	5688
205.77728	5735
205.79872	5752
205.82018	5840
205.84163	5890
205.86308	5979
205.88452	6003
205.90598	6028
205.92743	6110
205.94887	6126
205.97032	6173
205.99178	6225
206.01321	6330
206.03467	6359
206.05611	6394
206.07756	6398
206.09901	6444
206.12045	6477
206.14191	6528
206.16335	6615
206.1848	6670
206.20624	6655
206.22769	6692
206.24913	6798
206.27058	6901
206.29202	6865
206.31348	6975
206.33492	7039
206.35637	7034
206.37781	7070
206.39925	7106
206.4207	7167
206.44214	7234
206.46359	7302
206.48503	7338
206.50647	7390
206.52792	7536
206.54936	7604
206.5708	7666
206.59224	7740
206.61369	7719
206.63513	7759
206.65657	7793
206.67802	7843
206.69946	7875
206.7209	7869
206.74234	7974
206.76378	8071
206.78523	8155
206.80667	8135
206.82811	8192
206.84955	8208
206.87099	8220
206.89243	8280
206.91386	8346
206.93532	8531
206.95676	8637
206.9782	8668
206.99963	8618
207.02107	8784
207.04251	8867
207.06395	8894
207.08539	8986
207.10683	9031
207.12827	9096
207.1497	9108
207.17114	9108
207.19258	9213
207.21402	9372
207.23546	9406
207.2569	9452
207.27832	9568
207.29976	9747
207.3212	9766
207.34264	9791
207.36407	9835
207.38551	9870
207.40695	9969
207.42838	10048
207.44981	10187
207.47125	10321
207.49269	10444
207.51413	10501
207.53555	10509
207.55699	10558
207.57843	10614
207.59985	10719
207.62129	10840
207.64273	10967
207.66417	10939
207.68559	11001
207.70703	11054
207.72845	11201
207.74989	11239
207.77133	11216
207.79276	11286
207.81419	11371
207.83562	11406
207.85706	11482
207.87849	11522
207.89992	11601
207.92136	11707
207.94278	11825
207.96422	11949
207.98564	12050
208.00708	12122
208.0285	12234
208.04994	12270
208.07137	12312
208.09279	12274
208.11423	12391
208.13565	12494
208.15709	12571
208.17851	12584
208.19994	12678
208.22137	12728
208.2428	12884
208.26422	12912
208.28566	13001
208.30708	13066
208.32851	13120
208.34995	13202
208.37137	13398
208.39279	13639
208.41422	13864
208.43565	13861
208.45708	13975
208.4785	14033
208.49992	14095
208.52135	14136
208.54279	14172
208.56421	14189
208.58563	14372
208.60706	14504
208.62848	14529
208.6499	14523
208.67133	14571
208.69275	14693
208.71417	14824
208.7356	15088
208.75703	15244
208.77846	15283
208.79988	15391
208.8213	15434
208.84273	15432
208.86415	15558
208.88556	15730
208.90698	15998
208.92841	16228
208.94983	16411
208.97125	16383
208.99268	16456
209.0141	16612
209.03552	16655
209.05695	16751
209.07837	16857
209.09978	16918
209.1212	16952
209.14262	16920
209.16405	17113
209.18547	17193
209.20688	17240
209.2283	17265
209.24973	17316
209.27115	17390
209.29256	17482
209.31398	17650
209.3354	17845
209.35683	17964
209.37823	18112
209.39966	18337
209.42108	18564
209.44249	18620
209.46391	18675
209.48532	18765
209.50674	18787
209.52817	18834
209.54958	18952
209.571	19027
209.59241	19194
209.61383	19291
209.63524	19188
209.65666	19184
209.67807	19411
209.69949	19671
209.7209	19804
209.74232	19924
209.76373	20004
209.78516	20025
209.80656	20036
209.82797	20138
209.8494	20305
209.8708	20490
209.89223	20668
209.91364	20845
209.93504	21058
209.95647	21154
209.97787	21050
209.99928	21151
210.02071	21313
210.04211	21511
210.06352	21636
210.08493	21713
210.10635	21792
210.12776	21842
210.14917	21952
210.17058	22119
210.19199	22433
210.21341	22585
210.23482	22713
210.25623	22702
210.27763	22873
210.29904	23063
210.32045	23148
210.34186	23185
210.36327	23333
210.38469	23501
210.4061	23561
210.42751	23707
210.44891	23794
210.47032	23972
210.49173	24139
210.51314	24241
210.53455	24336
210.55595	24364
210.57736	24447
210.59877	24525
210.62018	24594
210.64157	24805
210.66298	24844
210.68439	24758
210.7058	24750
210.7272	25005
210.74861	25070
210.77002	25395
210.79143	25546
210.81282	25646
210.83423	25809
210.85564	26017
210.87704	26179
210.89844	26258
210.91985	26433
210.94125	26595
210.96266	26673
210.98405	26782
211.00546	26824
211.02687	26928
211.04826	27054
211.06967	27162
211.09108	27115
211.11247	27442
211.13388	27654
211.15529	27760
211.17668	27593
211.19809	27422
211.21948	27267
211.24089	27343
211.2623	27333
211.28369	27390
211.3051	27492
211.32649	27633
211.3479	27545
211.36929	27657
211.3907	27946
211.41209	28060
211.43349	28260
211.4549	28428
211.47629	28488
211.4977	28635
211.51909	28696
211.54048	28712
211.56189	28914
211.58328	29061
211.60469	29102
211.62608	29193
211.64748	29507
211.66887	29901
211.69028	30048
211.71167	29994
211.73306	30010
211.75447	30017
211.77586	30157
211.79726	30179
211.81865	30512
211.84004	30650
211.86145	30796
211.88284	30630
211.90424	30636
211.92563	30664
211.94702	30744
211.96841	30976
211.98981	31224
212.01122	31297
212.03261	31147
212.054	31053
212.07539	31199
212.09679	31390
212.11818	31635
212.13957	31706
212.16096	31744
212.18236	31597
212.20375	31599
212.22514	31437
212.24654	31440
212.26793	31526
212.28932	31581
212.3107	31619
212.33209	31732
212.35349	31875
212.37488	31856
212.39627	32049
212.41766	31988
212.43906	31866
212.46043	31833
212.48183	31716
212.50322	31831
212.52461	31868
212.54601	31903
212.56738	32005
212.58878	32174
212.61017	32407
212.63156	32402
212.65294	32452
212.67433	32525
212.69572	32507
212.7171	32523
212.73849	32911
212.75989	33302
212.78127	33499
212.80266	33499
212.82404	33467
212.84543	33363
212.86681	33334
212.8882	33441
212.90959	33499
212.93097	33665
212.95236	33580
212.97374	33537
212.99513	33435
213.01651	33287
213.0379	33281
213.05928	33228
213.08066	33346
213.10205	33673
213.12343	33838
213.14482	33778
213.1662	33707
213.18758	33431
213.20897	33401
213.23035	33444
213.25172	33701
213.27312	33877
213.29449	34233
213.31587	34402
213.33727	34281
213.35864	34270
213.38002	34328
213.4014	34191
213.42279	34306
213.44417	34381
213.46555	34289
213.48692	33991
213.5083	33748
213.52969	33674
213.55107	33521
213.57245	33437
213.59383	33429
213.6152	33627
213.63658	33580
213.65796	33537
213.67934	33395
213.70071	33607
213.72209	33555
213.74347	33678
213.76485	33947
213.78622	34057
213.8076	34016
213.82898	34117
213.85036	34366
213.87173	34481
213.89311	34261
213.91449	33832
213.93587	33794
213.95724	33943
213.97862	33725
214	33525
214.02138	33785
214.04274	34241
214.06412	34233
214.08549	34269
214.10687	34143
214.12825	33979
214.14961	34140
214.17099	34123
214.19237	34356
214.21375	34517
214.23511	34518
214.25648	34504
214.27786	34394
214.29922	34475
214.3206	34354
214.34198	34141
214.36334	34148
214.38472	33987
214.4061	33970
214.42746	33973
214.44884	33880
214.4702	33651
214.49158	33614
214.51294	33579
214.53432	33810
214.55568	33834
214.57706	33862
214.59842	33835
214.6198	33789
214.64116	33599
214.66254	33506
214.6839	33487
214.70528	33542
214.72664	33726
214.74802	33684
214.76938	33571
214.79074	33500
214.81212	33357
214.83348	33389
214.85484	33326
214.87622	33197
214.89758	33253
214.91895	33164
214.94031	33044
214.96169	32971
214.98305	32930
215.00441	32838
215.02577	32653
215.04715	32482
215.06851	32512
215.08987	32601
215.11124	32542
215.1326	32441
215.15396	32376
215.17534	32470
215.1967	32451
215.21806	32467
215.23943	32455
215.26079	32443
215.28215	32198
215.30351	32104
215.32487	31921
215.34624	31855
215.3676	31672
215.38896	31655
215.41032	31530
215.43169	31258
215.45305	30954
215.47441	30875
215.49577	30850
215.51714	30717
215.5385	30591
215.55986	30361
215.58121	30399
215.60257	30093
215.62393	29882
215.64529	29592
215.66666	29780
215.68802	29751
215.70937	29615
215.73073	29701
215.75209	29783
215.77345	29604
215.7948	29447
215.81616	29394
215.83752	29357
215.85889	29172
215.88023	29210
215.9016	29259
215.92296	29061
215.94431	29001
215.96567	28889
215.98701	28994
216.00838	29137
216.02974	29127
216.05109	29043
216.07245	28898
216.0938	28734
216.11516	28522
216.13651	28400
216.15787	28352
216.17921	28544
216.20058	28495
216.22192	28393
216.24329	28325
216.26463	28267
216.286	28407
216.30734	28355
216.32869	28283
216.35005	28169
216.3714	28002
216.39275	27872
216.41411	28022
216.43546	28084
216.4568	27899
216.47816	27733
216.49951	27509
216.52086	27430
216.54222	27245
216.56357	27100
216.58492	27225
216.60626	27330
216.62761	27227
216.64897	27078
216.67032	27094
216.69167	27032
216.71301	26955
216.73436	26922
216.75571	26971
216.77705	26934
216.79842	26784
216.81976	26684
216.84111	26442
216.86246	26428
216.8838	26252
216.90515	26221
216.9265	26312
216.94785	26452
216.96919	26295
216.99054	26063
217.01189	25806
217.03323	25617
217.05458	25490
217.07591	25457
217.09726	25367
217.11861	25446
217.13995	25328
217.1613	25187
217.18265	25249
217.20399	25265
217.22533	25191
217.24667	25133
217.26802	25173
217.28937	25073
217.31071	24956
217.33205	24801
217.35339	24690
217.37474	24645
217.39609	24589
217.41742	24301
217.43877	24473
217.46011	24655
217.48145	24674
217.50279	24515
217.52412	24280
217.54547	24083
217.56682	24121
217.58815	24038
217.6095	24046
217.63083	24105
217.65218	24129
217.67351	23987
217.69485	23918
217.71619	23750
217.73753	23628
217.75887	23582
217.78021	23557
217.80154	23661
217.82289	23524
217.84422	23321
217.86557	23133
217.8869	23087
217.90823	23063
217.92958	22904
217.95091	22785
217.97224	22805
217.99359	22683
218.01492	22561
218.03625	22381
218.05759	22297
218.07893	22438
218.10027	22223
218.1216	22323
218.14293	22235
218.16428	22173
218.18561	22034
218.20694	21960
218.22827	21913
218.2496	21724
218.27094	21567
218.29228	21373
218.31361	21339
218.33495	21098
218.35628	21028
218.37761	21037
218.39894	20994
218.42027	20910
218.4416	20778
218.46294	20701
218.48427	20574
218.5056	20507
218.52693	20554
218.54826	20630
218.5696	20686
218.59093	20798
218.61226	20667
218.63359	20522
218.65492	20496
218.67624	20325
218.69757	20182
218.7189	20159
218.74023	20203
218.76157	20139
218.7829	19999
218.80421	19949
218.82555	19755
218.84688	19767
218.86821	19823
218.88953	19889
218.91086	19934
218.93219	19886
218.95351	19758
218.97484	19597
218.99617	19584
219.01749	19598
219.03882	19641
219.06015	19775
219.08147	19846
219.1028	19908
219.12411	19800
219.14545	19684
219.16678	19743
219.1881	19645
219.20943	19571
219.23074	19500
219.25208	19372
219.27339	19270
219.29472	19123
219.31604	19095
219.33736	18984
219.35869	18816
219.38	18831
219.40134	18692
219.42265	18674
219.44397	18651
219.4653	18657
219.48662	18550
219.50793	18492
219.52927	18465
219.55058	18509
219.5719	18617
219.59323	18566
219.61455	18495
219.63586	18491
219.65718	18416
219.6785	18273
219.69983	18172
219.72115	17992
219.74246	17954
219.76378	17967
219.7851	17849
219.80641	17739
219.82773	17777
219.84906	17793
219.87038	17731
219.89169	17725
219.91301	17680
219.93433	17603
219.95564	17428
219.97696	17419
219.99828	17432
220.01959	17486
220.04091	17413
220.06223	17393
220.08354	17365
220.10486	17382
220.12617	17207
220.14748	17123
220.16879	17101
220.19011	17101
220.21143	16975
220.23274	16940
220.25406	16952
220.27536	16863
220.29668	16764
220.31799	16738
220.33931	16801
220.36063	16864
220.38193	16798
220.40324	16658
220.42456	16653
220.44586	16581
220.46718	16517
220.48849	16539
220.5098	16558
220.53111	16666
220.55243	16688
220.57373	16525
220.59505	16445
220.61636	16423
220.63766	16489
220.65898	16278
220.68028	16353
220.7016	16235
220.7229	16183
220.74422	16073
220.76552	16131
220.78683	16071
220.80814	15957
220.82945	15873
220.85075	15703
220.87206	15643
220.89337	15718
220.91467	15729
220.93599	15703
220.95729	15636
220.97859	15521
220.99991	15580
221.02121	15522
221.04251	15486
221.06381	15462
221.08513	15392
221.10643	15417
221.12773	15367
221.14903	15238
221.17035	15268
221.19165	15280
221.21295	15194
221.23425	15020
221.25555	14999
221.27686	15003
221.29817	15018
221.31947	14922
221.34077	14889
221.36208	14855
221.38338	14746
221.40468	14661
221.42598	14435
221.44728	14344
221.46858	14273
221.48988	14249
221.51118	14309
221.53249	14331
221.55379	14287
221.57509	14109
221.59639	14000
221.61769	13969
221.63899	13873
221.66028	13826
221.68158	13929
221.70288	13922
221.72418	13876
221.74548	13857
221.76678	13779
221.78807	13814
221.80937	13809
221.83067	13780
221.85197	13776
221.87326	13704
221.89456	13687
221.91586	13592
221.93716	13507
221.95845	13403
221.97975	13442
222.00105	13386
222.02234	13367
222.04364	13339
222.06493	13349
222.08623	13432
222.10753	13346
222.12881	13332
222.15012	13312
222.1714	13275
222.1927	13320
222.21399	13291
222.23529	13254
222.25658	13179
222.27788	13113
222.29916	13057
222.32045	12988
222.34175	12949
222.36304	12953
222.38434	12993
222.40562	12991
222.42691	12912
222.44821	12855
222.4695	12819
222.49078	12777
222.51208	12756
222.53337	12738
222.55466	12768
222.57594	12727
222.59724	12662
222.61853	12583
222.63982	12546
222.6611	12529
222.68239	12422
222.70369	12500
222.72498	12516
222.74626	12511
222.76755	12461
222.78883	12324
222.81012	12205
222.83141	12129
222.85269	12088
222.87398	11981
222.89526	12026
222.91656	11965
222.93785	11903
222.95914	11892
222.98041	11857
223.00169	11874
223.02298	11889
223.04427	11771
223.06555	11751
223.08684	11715
223.10812	11738
223.12941	11654
223.1507	11586
223.17198	11484
223.19325	11473
223.21454	11352
223.23582	11441
223.25711	11550
223.2784	11644
223.29967	11461
223.32095	11404
223.34224	11343
223.36353	11288
223.3848	11284
223.40608	11271
223.42737	11419
223.44864	11428
223.46992	11469
223.4912	11488
223.51248	11415
223.53377	11341
223.55504	11358
223.57632	11348
223.5976	11390
223.61888	11349
223.64015	11330
223.66144	11298
223.68271	11184
223.70399	11286
223.72527	11196
223.74655	11165
223.76782	11145
223.78911	11114
223.81038	10964
223.83165	10939
223.85294	11030
223.87421	10976
223.89549	10999
223.91676	11014
223.93803	11057
223.9593	10985
223.98059	10918
224.00186	11021
224.02313	10900
224.04442	10931
224.06569	10863
224.08696	10847
224.10823	10832
224.1295	10699
224.15077	10678
224.17206	10703
224.19333	10673
224.2146	10623
224.23587	10622
224.25714	10584
224.27841	10508
224.29968	10498
224.32095	10538
224.34222	10626
224.36349	10648
224.38477	10676
224.40604	10584
224.42731	10541
224.44858	10548
224.46985	10392
224.49112	10425
224.51239	10443
224.53366	10497
224.55493	10429
224.5762	10434
224.59747	10405
224.61873	10319
224.64	10296
224.66127	10282
224.68254	10365
224.70381	10410
224.72507	10419
224.74634	10354
224.76761	10283
224.78888	10252
224.81013	10256
224.83141	10256
224.85268	10332
224.87393	10405
224.8952	10362
224.91647	10345
224.93773	10317
224.959	10269
224.98026	10228
225.00153	10253
225.02278	10200
225.04405	10195
225.06532	10161
225.08658	10106
225.10785	10020
225.1291	10026
225.15036	9977
225.17163	9889
225.19289	9885
225.21416	9873
225.23541	9898
225.25668	9854
225.27794	9857
225.29919	9905
225.32047	9878
225.34172	9918
225.36298	9960
225.38425	10012
225.4055	9902
225.42676	9923
225.44801	9866
225.46928	9841
225.49054	9857
225.5118	9763
225.53305	9819
225.55431	9803
225.57558	9684
225.59683	9655
225.61809	9641
225.63934	9622
225.6606	9629
225.68185	9588
225.70311	9620
225.72437	9561
225.74562	9469
225.76688	9498
225.78813	9521
225.80939	9521
225.83064	9489
225.8519	9512
225.87315	9486
225.89441	9395
225.91566	9366
225.93692	9362
225.95818	9332
225.97943	9334
226.00069	9360
226.02194	9390
226.04318	9380
226.06444	9309
226.08569	9281
226.10695	9249
226.1282	9237
226.14944	9349
226.1707	9274
226.19196	9249
226.21321	9178
226.23445	9161
226.25571	9134
226.27696	9127
226.2982	9147
226.31946	9206
226.34071	9195
226.36195	9158
226.38321	9145
226.40445	9188
226.4257	9186
226.44695	9153
226.4682	9147
226.48946	9090
226.5107	9031
226.53195	9056
226.55319	9063
226.57443	9067
226.59569	9044
226.61693	8936
226.63818	8894
226.65942	8892
226.68066	8895
226.70192	8981
226.72316	8990
226.74442	8940
226.76566	8899
226.7869	8933
226.80814	8972
226.82939	8933
226.85063	8874
226.87187	8871
226.89311	8852
226.91437	8800
226.93561	8762
226.95685	8756
226.97809	8732
226.99933	8687
227.02058	8655
227.04182	8667
227.06306	8678
227.0843	8671
227.10555	8750
227.12679	8662
227.14803	8665
227.16927	8600
227.19051	8560
227.21175	8505
227.23299	8486
227.25423	8491
227.27547	8439
227.29671	8500
227.31795	8491
227.33919	8508
227.36043	8477
227.38167	8520
227.40289	8476
227.42413	8454
227.44537	8455
227.46661	8434
227.48785	8480
227.50908	8485
227.53032	8476
227.55156	8423
227.5728	8491
227.59402	8506
227.61526	8559
227.63651	8556
227.65775	8507
227.67897	8484
227.70021	8453
227.72144	8361
227.74268	8319
227.76392	8310
227.78514	8302
227.80638	8309
227.82761	8352
227.84885	8375
227.87007	8347
227.89131	8385
227.91254	8400
227.93378	8452
227.955	8418
227.97624	8417
227.99747	8381
228.01871	8485
228.03993	8431
228.06117	8426
228.0824	8403
228.10362	8350
228.12486	8319
228.14609	8359
228.16731	8396
228.18855	8372
228.20978	8383
228.231	8384
228.25223	8408
228.27347	8455
228.29469	8415
228.31592	8432
228.33714	8487
228.35837	8481
228.37959	8427
228.40083	8478
228.42206	8406
228.44328	8412
228.46451	8427
228.48573	8465
228.50696	8486
228.52818	8530
228.54941	8526
228.57063	8459
228.59186	8398
228.61308	8390
228.63431	8416
228.65553	8448
228.67676	8496
228.69798	8497
228.71921	8493
228.74043	8539
228.76166	8502
228.78287	8589
228.80409	8561
228.82532	8543
228.84654	8549
228.86777	8553
228.88899	8624
228.9102	8620
228.93143	8590
228.95265	8475
228.97388	8510
228.99509	8547
229.01631	8602
229.03754	8645
229.05875	8672
229.07997	8609
229.1012	8640
229.12241	8675
229.14363	8725
229.16484	8732
229.18607	8771
229.20728	8786
229.2285	8781
229.24973	8806
229.27094	8749
229.29216	8760
229.31337	8742
229.33458	8753
229.3558	8780
229.37701	8771
229.39824	8726
229.41945	8691
229.44067	8712
229.46188	8681
229.48309	8634
229.50432	8616
229.52553	8600
229.54674	8541
229.56795	8517
229.58917	8510
229.61038	8440
229.63159	8456
229.6528	8385
229.67403	8397
229.69524	8396
229.71645	8343
229.73766	8268
229.75887	8257
229.78008	8224
229.8013	8180
229.82251	8069
229.84372	8049
229.86493	7994
229.88614	7949
229.90735	7879
229.92856	7800
229.94977	7757
229.97098	7740
229.99219	7681
230.0134	7611
230.03461	7586
230.05582	7489
230.07703	7460
230.09824	7409
230.11943	7467
230.14064	7402
230.16185	7438
230.18306	7395
230.20427	7305
230.22548	7245
230.24667	7202
230.26788	7143
230.28909	7110
230.3103	7102
230.3315	7045
230.35271	7053
230.37392	7002
230.39511	6956
230.41632	6932
230.43753	6910
230.45872	6941
230.47993	6919
230.50114	6927
230.52234	6938
230.54355	6867
230.56474	6789
230.58595	6783
230.60715	6815
230.62836	6764
230.64955	6856
230.67076	6824
230.69196	6780
230.71317	6795
230.73436	6797
230.75557	6780
230.77676	6712
230.79796	6759
230.81917	6708
230.84036	6690
230.86156	6674
230.88277	6658
230.90396	6595
230.92516	6565
230.94637	6466
230.96756	6465
230.98875	6473
231.00995	6490
231.03114	6489
231.05235	6466
231.07355	6484
231.09474	6413
231.11594	6492
231.13713	6452
231.15833	6474
231.17952	6417
231.20071	6440
231.22192	6452
231.24312	6432
231.26431	6424
231.28551	6379
231.3067	6420
231.3279	6404
231.34909	6354
231.37027	6317
231.39146	6343
231.41266	6334
231.43385	6311
231.45505	6294
231.47624	6346
231.49744	6329
231.51863	6242
231.53983	6244
231.561	6243
231.5822	6230
231.60339	6219
231.62459	6229
231.64577	6234
231.66696	6193
231.68816	6161
231.70935	6129
231.73053	6105
231.75172	6069
231.77292	6145
231.7941	6156
231.81529	6149
231.83647	6071
231.85767	6030
231.87886	6007
231.90004	6019
231.92123	6050
231.94241	6012
231.96361	6002
231.98479	6033
232.00598	5947
232.02716	5939
232.04834	5905
232.06953	5924
232.09071	5898
232.11191	5868
232.13309	5905
232.15427	5895
232.17546	5866
232.19664	5869
232.21782	5922
232.23901	5842
232.26019	5845
232.28137	5773
232.30257	5815
232.32375	5790
232.34492	5821
232.3661	5741
232.38728	5719
232.40848	5713
232.42966	5745
232.45084	5717
232.47202	5743
232.49319	5751
232.51437	5700
232.53555	5692
232.55673	5680
232.57791	5637
232.59909	5613
232.62027	5635
232.64145	5621
232.66263	5598
232.68381	5601
232.70499	5596
232.72617	5522
232.74734	5527
232.76852	5536
232.7897	5517
232.81088	5506
232.83205	5561
232.85323	5535
232.8744	5516
232.89558	5518
232.91676	5462
232.93793	5382
232.95911	5374
232.98029	5340
233.00146	5334
233.02263	5299
233.04381	5295
233.06499	5308
233.08615	5285
233.10733	5341
233.12851	5297
233.14967	5266
233.17085	5302
233.19202	5241
233.2132	5317
233.23438	5306
233.25554	5346
233.27672	5332
233.29788	5286
233.31906	5332
233.34023	5301
233.36139	5291
233.38257	5276
233.40373	5286
233.42491	5246
233.44608	5279
233.46724	5257
233.48842	5211
233.50958	5179
233.53075	5248
233.55193	5195
233.57309	5273
233.59425	5255
233.61542	5247
233.6366	5255
233.65776	5213
233.67892	5232
233.70009	5277
233.72127	5251
233.74243	5256
233.7636	5248
233.78476	5247
233.80592	5213
233.82709	5176
233.84825	5238
233.86942	5244
233.89058	5179
233.91174	5167
233.93291	5200
233.95407	5180
233.97523	5162
233.9964	5140
234.01756	5179
234.03873	5189
234.05989	5136
234.08105	5127
234.10222	5115
234.12338	5111
234.14453	5083
234.1657	5044
234.18686	5078
234.20802	5136
234.22919	5127
234.25034	5176
234.2715	5106
234.29266	5103
234.31383	5097
234.33498	5028
234.35614	5041
234.3773	5028
234.39845	5029
234.41962	5020
234.44078	4981
234.46193	4983
234.48309	4990
234.50424	4947
234.52541	4986
234.54655	4982
234.56772	4998
234.58887	5003
234.61003	4919
234.63118	4931
234.65234	4901
234.67349	4920
234.69466	4908
234.71581	4886
234.73695	4858
234.75812	4874
234.77927	4847
234.80043	4886
234.82158	4887
234.84273	4848
234.86388	4850
234.88504	4856
234.90619	4863
234.92734	4839
234.94849	4870
234.96965	4849
234.9908	4829
235.01195	4805
235.0331	4834
235.05424	4829
235.07539	4805
235.09656	4773
235.11771	4785
235.13885	4816
235.16	4772
235.18115	4798
235.2023	4770
235.22345	4782
235.2446	4743
235.26575	4756
235.2869	4739
235.30804	4730
235.32919	4697
235.35034	4666
235.37148	4690
235.39262	4665
235.41377	4663
235.43492	4681
235.45607	4669
235.47722	4697
235.49835	4641
235.5195	4660
235.54065	4655
235.5618	4642
235.58293	4665
235.60408	4664
235.62523	4609
235.64638	4637
235.66751	4643
235.68866	4636
235.70981	4626
235.73094	4620
235.75209	4539
235.77322	4479
