Date and Time:                Mon Oct 10 12:41:29.000 2022
Software Version:             4.31.30023.0
Temperature (C):              -40
Model:                        DU940P_BU2
Data Type:                    Counts
Acquisition Mode:             Single Scan
Trigger Mode:                 Internal
Exposure Time (secs):         55
Readout Mode:                 Full Vertical Binning
Horizontal binning:           1
Extended Dynamic Range:       off
Horizontally flipped:         false
Vertical Shift Speed (usecs): 14.51
Pixel Readout Rate (MHz):     3
Baseline Clamp:               ON
Clock Amplitude:              Normal
Output Amplifier:             High Capacity
Serial Number:                23634
Pre-Amplifier Gain:           1.000000
Spurious Noise Filter Mode:   No Filter
Photon counted:               false
Data Averaging Filter Mode:   No Filter
SR500i:
Serial Number:                
Wavelength (nm):              214
Grating Groove Density (l/mm):1199.47
Grating Blaze:                500
Output Flipper Port:          Direct
Accessory Output Port 1:      Off
Accessory Output Port 2:      Off
Accessory Output Port 3:      Off
Accessory Input Port:         On



192.0349	517
192.05646	508
192.078	502
192.09956	498
192.12112	497
192.14268	495
192.16425	482
192.18581	464
192.20735	451
192.22891	455
192.25047	457
192.27203	484
192.29358	457
192.31514	475
192.3367	471
192.35826	463
192.37981	470
192.40137	476
192.42293	495
192.44449	474
192.46603	453
192.48759	476
192.50916	495
192.5307	496
192.55226	477
192.57381	471
192.59537	471
192.61693	494
192.63847	492
192.66003	497
192.68159	490
192.70314	476
192.7247	458
192.74625	486
192.76781	506
192.78935	517
192.81091	507
192.83246	508
192.85402	496
192.87556	482
192.89713	479
192.91867	507
192.94023	511
192.96178	515
192.98334	526
193.00488	523
193.02643	510
193.04799	482
193.06953	495
193.09109	496
193.11264	509
193.13419	517
193.15575	513
193.17729	529
193.19884	518
193.2204	519
193.24194	499
193.26349	516
193.28505	508
193.30659	507
193.32814	523
193.34969	520
193.37125	546
193.39279	529
193.41434	515
193.43588	511
193.45744	516
193.47899	503
193.50053	523
193.52208	520
193.54362	525
193.56517	522
193.58673	543
193.60828	532
193.62982	527
193.65137	533
193.67291	538
193.69446	515
193.716	506
193.73755	509
193.75909	516
193.78064	529
193.80219	511
193.82375	523
193.84529	517
193.86684	529
193.88838	514
193.90993	522
193.93147	530
193.953	531
193.97455	525
193.99609	511
194.01764	534
194.03918	534
194.06073	527
194.08228	532
194.10382	530
194.12537	527
194.14691	529
194.16846	531
194.18999	532
194.21153	535
194.23308	531
194.25462	525
194.27617	525
194.29771	530
194.31924	532
194.34079	541
194.36234	559
194.38388	551
194.40541	527
194.42696	516
194.4485	539
194.47005	535
194.49158	526
194.51312	501
194.53467	486
194.5562	500
194.57774	507
194.59929	502
194.62082	494
194.64236	514
194.66391	504
194.68544	495
194.70699	511
194.72852	546
194.75006	530
194.77161	496
194.79314	499
194.81468	541
194.83621	541
194.85776	542
194.87929	507
194.90083	509
194.92236	519
194.94391	535
194.96544	534
194.98698	535
195.00851	531
195.03006	508
195.05159	525
195.07312	527
195.09467	549
195.1162	566
195.13774	544
195.15927	557
195.1808	525
195.20235	517
195.22388	537
195.24541	571
195.26695	564
195.28848	559
195.31001	556
195.33156	558
195.35309	558
195.37462	543
195.39616	550
195.41769	550
195.43922	559
195.46075	572
195.48228	604
195.50383	568
195.52536	566
195.54689	553
195.56842	558
195.58995	558
195.6115	558
195.63303	582
195.65456	577
195.67609	579
195.69762	582
195.71915	566
195.74068	573
195.76221	574
195.78374	576
195.80528	569
195.82681	569
195.84834	571
195.86987	572
195.8914	599
195.91293	576
195.93446	572
195.95599	590
195.97752	572
195.99905	600
196.02058	581
196.0421	583
196.06363	597
196.08516	593
196.10669	602
196.12822	598
196.14975	598
196.17128	597
196.19281	605
196.21434	595
196.23586	611
196.25739	599
196.27892	604
196.30045	603
196.32198	613
196.34351	603
196.36502	601
196.38655	610
196.40808	621
196.42961	609
196.45113	609
196.47266	615
196.49419	609
196.5157	618
196.53723	629
196.55876	632
196.58029	618
196.60181	608
196.62334	619
196.64485	627
196.66638	644
196.68791	622
196.70943	629
196.73096	635
196.75249	636
196.774	640
196.79553	638
196.81705	645
196.83858	645
196.86009	643
196.88162	642
196.90314	642
196.92467	640
196.94618	640
196.96771	635
196.98923	627
197.01076	640
197.03227	641
197.0538	662
197.07532	629
197.09683	640
197.11836	651
197.13988	633
197.16141	631
197.18292	652
197.20444	658
197.22597	651
197.24748	658
197.269	644
197.29053	671
197.31204	671
197.33356	670
197.35509	654
197.3766	653
197.39812	687
197.41963	680
197.44116	682
197.46268	682
197.48419	675
197.50571	668
197.52722	672
197.54875	692
197.57027	688
197.59178	688
197.6133	683
197.63481	689
197.65633	691
197.67784	695
197.69937	701
197.72089	731
197.7424	721
197.76392	719
197.78543	717
197.80695	711
197.82846	702
197.84998	724
197.87149	723
197.89301	726
197.91452	722
197.93604	725
197.95755	719
197.97906	724
198.00058	732
198.02209	735
198.04361	726
198.06512	738
198.08664	731
198.10814	733
198.12965	725
198.15117	725
198.17268	728
198.1942	754
198.21571	735
198.23723	729
198.25873	737
198.28024	754
198.30176	748
198.32327	755
198.34479	753
198.36629	760
198.3878	760
198.40932	769
198.43083	761
198.45233	776
198.47385	783
198.49536	777
198.51686	784
198.53838	781
198.55989	775
198.58139	783
198.60291	794
198.62442	805
198.64592	802
198.66743	802
198.68895	811
198.71045	801
198.73196	815
198.75346	816
198.77498	809
198.79648	799
198.81799	814
198.83949	819
198.86101	828
198.88251	825
198.90402	832
198.92552	837
198.94704	836
198.96854	830
198.99005	830
199.01155	839
199.03307	829
199.05457	846
199.07607	846
199.09758	846
199.11908	858
199.14059	860
199.16209	876
199.18359	890
199.20511	864
199.22661	866
199.24811	888
199.26961	892
199.29112	890
199.31262	908
199.33412	899
199.35564	892
199.37714	893
199.39864	919
199.42014	956
199.44164	923
199.46315	918
199.48465	924
199.50615	905
199.52765	927
199.54915	932
199.57065	929
199.59216	935
199.61366	933
199.63516	914
199.65666	932
199.67816	950
199.69966	949
199.72116	938
199.74266	963
199.76416	971
199.78566	961
199.80716	986
199.82866	984
199.85016	985
199.87166	981
199.89316	1006
199.91466	992
199.93616	1010
199.95766	1022
199.97916	1018
200.00066	1039
200.02216	1039
200.04366	1038
200.06516	1043
200.08664	1055
200.10814	1061
200.12964	1045
200.15114	1042
200.17264	1059
200.19414	1079
200.21562	1075
200.23712	1082
200.25862	1055
200.28012	1067
200.30161	1065
200.3231	1071
200.3446	1108
200.3661	1112
200.38759	1101
200.40909	1120
200.43059	1143
200.45207	1129
200.47357	1131
200.49507	1131
200.51656	1140
200.53806	1147
200.55956	1161
200.58104	1152
200.60254	1173
200.62402	1167
200.64552	1171
200.66702	1175
200.68851	1186
200.71001	1236
200.73149	1192
200.75299	1220
200.77448	1222
200.79597	1205
200.81746	1218
200.83896	1216
200.86044	1218
200.88194	1230
200.90343	1241
200.92491	1240
200.94641	1290
200.9679	1262
200.9894	1264
201.01088	1284
201.03236	1261
201.05386	1289
201.07535	1285
201.09683	1316
201.11833	1322
201.13982	1327
201.1613	1327
201.1828	1346
201.20428	1351
201.22577	1346
201.24725	1357
201.26875	1383
201.29024	1373
201.31172	1384
201.33321	1388
201.35469	1401
201.37619	1402
201.39767	1417
201.41916	1408
201.44064	1454
201.46213	1437
201.48361	1459
201.50511	1491
201.5266	1470
201.54808	1496
201.56956	1483
201.59105	1527
201.61253	1515
201.63402	1548
201.6555	1548
201.67699	1544
201.69847	1532
201.71996	1569
201.74144	1571
201.76292	1597
201.78441	1599
201.80589	1600
201.82738	1607
201.84886	1626
201.87035	1632
201.89183	1638
201.9133	1666
201.93478	1667
201.95627	1673
201.97775	1700
201.99924	1700
202.02072	1699
202.04221	1721
202.06367	1731
202.08516	1722
202.10664	1741
202.12813	1760
202.14961	1759
202.17108	1800
202.19257	1774
202.21405	1800
202.23553	1794
202.257	1809
202.27849	1802
202.29997	1814
202.32144	1823
202.34293	1848
202.36441	1854
202.38588	1867
202.40736	1870
202.42883	1865
202.45032	1913
202.4718	1926
202.49327	1881
202.51476	2135
202.53622	1899
202.55771	1953
202.57918	1971
202.60066	2011
202.62213	1994
202.64362	2025
202.66508	2061
202.68657	2058
202.70804	2068
202.72952	2107
202.75099	2068
202.77248	2142
202.79395	2102
202.81543	2125
202.8369	2150
202.85837	2143
202.87985	2179
202.90132	2187
202.92279	2201
202.94427	2249
202.96574	2258
202.98721	2275
203.0087	2293
203.03017	2290
203.05164	2293
203.0731	2377
203.09459	2398
203.11606	2394
203.13753	2400
203.159	2389
203.18048	2430
203.20195	2461
203.22342	2450
203.24489	2483
203.26636	2510
203.28783	2524
203.30931	2505
203.33078	2538
203.35225	2550
203.37372	2582
203.39519	2564
203.41666	2590
203.43813	2614
203.45959	2597
203.48106	2627
203.50253	2669
203.524	2698
203.54547	2695
203.56694	2714
203.58841	2740
203.60988	2796
203.63135	2787
203.65282	2798
203.67429	2822
203.69576	2839
203.71722	2843
203.73869	2866
203.76016	2870
203.78163	2880
203.80309	2903
203.82455	2927
203.84602	2938
203.86749	2962
203.88896	2961
203.91043	3017
203.93188	3043
203.95335	3034
203.97482	3031
203.99629	3059
204.01775	3113
204.03922	3184
204.06068	3196
204.08215	3202
204.10361	3201
204.12508	3259
204.14655	3244
204.168	3268
204.18947	3325
204.21094	3307
204.23239	3333
204.25386	3363
204.27531	3398
204.29678	3370
204.31825	3394
204.33971	3413
204.36118	3465
204.38263	3522
204.4041	3548
204.42555	3577
204.44702	3576
204.46848	3605
204.48994	3643
204.5114	3704
204.53287	3732
204.55432	3789
204.57579	3810
204.59724	3798
204.6187	3868
204.64017	3857
204.66162	3921
204.68309	3928
204.70454	3988
204.726	4016
204.74747	4040
204.76892	4052
204.79037	4072
204.81184	4125
204.8333	4170
204.85475	4177
204.87621	4171
204.89767	4252
204.91913	4274
204.94058	4292
204.96204	4327
204.98351	4390
205.00496	4418
205.02641	4465
205.04787	4518
205.06932	4554
205.09077	4564
205.11224	4613
205.1337	4669
205.15515	4670
205.17661	4704
205.19806	4737
205.21951	4797
205.24097	4850
205.26242	4883
205.28387	4924
205.30533	4947
205.32678	5005
205.34824	5020
205.36969	5007
205.39114	5022
205.4126	5056
205.43405	5107
205.45551	5151
205.47696	5204
205.49841	5251
205.51987	5263
205.54132	5302
205.56277	5331
205.58421	5426
205.60567	5492
205.62712	5511
205.64857	5555
205.67003	5629
205.69148	5637
205.71292	5683
205.73438	5766
205.75583	5799
205.77728	5917
205.79872	5891
205.82018	6007
205.84163	6061
205.86308	6166
205.88452	6182
205.90598	6201
205.92743	6310
205.94887	6340
205.97032	6386
205.99178	6428
206.01321	6493
206.03467	6568
206.05611	6631
206.07756	6644
206.09901	6681
206.12045	6707
206.14191	6706
206.16335	6826
206.1848	6913
206.20624	6893
206.22769	6978
206.24913	7027
206.27058	7093
206.29202	7152
206.31348	7235
206.33492	7281
206.35637	7323
206.37781	7372
206.39925	7410
206.4207	7446
206.44214	7500
206.46359	7586
206.48503	7628
206.50647	7684
206.52792	7789
206.54936	7917
206.5708	7934
206.59224	8015
206.61369	8034
206.63513	8092
206.65657	8136
206.67802	8132
206.69946	8194
206.7209	8240
206.74234	8305
206.76378	8401
206.78523	8452
206.80667	8451
206.82811	8536
206.84955	8545
206.87099	8599
206.89243	8657
206.91386	8769
206.93532	8921
206.95676	9045
206.9782	9041
206.99963	9116
207.02107	9159
207.04251	9256
207.06395	9339
207.08539	9422
207.10683	9483
207.12827	9517
207.1497	9515
207.17114	9629
207.19258	9670
207.21402	9832
207.23546	9851
207.2569	9915
207.27832	10050
207.29976	10236
207.3212	10306
207.34264	10309
207.36407	10360
207.38551	10416
207.40695	10513
207.42838	10618
207.44981	10745
207.47125	10912
207.49269	10921
207.51413	11026
207.53555	11015
207.55699	11049
207.57843	11202
207.59985	11323
207.62129	11412
207.64273	11529
207.66417	11552
207.68559	11627
207.70703	11712
207.72845	11826
207.74989	11805
207.77133	11829
207.79276	12003
207.81419	12006
207.83562	12220
207.85706	12161
207.87849	12226
207.89992	12284
207.92136	12370
207.94278	12549
207.96422	12669
207.98564	12790
208.00708	12864
208.0285	12983
208.04994	13063
208.07137	13130
208.09279	13045
208.11423	13185
208.13565	13286
208.15709	13366
208.17851	13433
208.19994	13441
208.22137	13603
208.2428	13722
208.26422	13761
208.28566	13785
208.30708	13949
208.32851	14072
208.34995	14142
208.37137	14285
208.39279	14495
208.41422	14789
208.43565	14830
208.45708	14908
208.4785	14922
208.49992	15080
208.52135	15032
208.54279	15138
208.56421	15227
208.58563	15360
208.60706	15499
208.62848	15535
208.6499	15567
208.67133	15664
208.69275	15661
208.71417	15888
208.7356	16136
208.75703	16285
208.77846	16328
208.79988	16391
208.8213	16464
208.84273	16524
208.86415	16621
208.88556	16864
208.90698	17151
208.92841	17395
208.94983	17496
208.97125	17613
208.99268	17654
209.0141	17812
209.03552	17875
209.05695	17936
209.07837	18044
209.09978	18159
209.1212	18160
209.14262	18152
209.16405	18365
209.18547	18516
209.20688	18584
209.2283	18610
209.24973	18613
209.27115	18780
209.29256	18873
209.31398	18948
209.3354	19203
209.35683	19394
209.37823	19497
209.39966	19736
209.42108	19921
209.44249	20069
209.46391	20050
209.48532	20184
209.50674	20237
209.52817	20356
209.54958	20371
209.571	20472
209.59241	20656
209.61383	20650
209.63524	20722
209.65666	20771
209.67807	20970
209.69949	21186
209.7209	21374
209.74232	21485
209.76373	21621
209.78516	21706
209.80656	21720
209.82797	21824
209.8494	21969
209.8708	22095
209.89223	22350
209.91364	22537
209.93504	22798
209.95647	22732
209.97787	22845
209.99928	22891
210.02071	23054
210.04211	23224
210.06352	23395
210.08493	23465
210.10635	23531
210.12776	23619
210.14917	23628
210.17058	23893
210.19199	24244
210.21341	24451
210.23482	24633
210.25623	24658
210.27763	24678
210.29904	24918
210.32045	24902
210.34186	25081
210.36327	25238
210.38469	25467
210.4061	25412
210.42751	25630
210.44891	25798
210.47032	25954
210.49173	26044
210.51314	26237
210.53455	26358
210.55595	26336
210.57736	26520
210.59877	26457
210.62018	26706
210.64157	26855
210.66298	26815
210.68439	26775
210.7058	26924
210.7272	27144
210.74861	27206
210.77002	27522
210.79143	27681
210.81282	27746
210.83423	27879
210.85564	28133
210.87704	28364
210.89844	28461
210.91985	28600
210.94125	28737
210.96266	28858
210.98405	29054
211.00546	29031
211.02687	29180
211.04826	29287
211.06967	29424
211.09108	29342
211.11247	29608
211.13388	29952
211.15529	29980
211.17668	29818
211.19809	29587
211.21948	29516
211.24089	29468
211.2623	29447
211.28369	29632
211.3051	29758
211.32649	29834
211.3479	29840
211.36929	29884
211.3907	30159
211.41209	30338
211.43349	30458
211.4549	30748
211.47629	30846
211.4977	30920
211.51909	30917
211.54048	31023
211.56189	31324
211.58328	31383
211.60469	31379
211.62608	31529
211.64748	31912
211.66887	32296
211.69028	32433
211.71167	32483
211.73306	32444
211.75447	32514
211.77586	32574
211.79726	32693
211.81865	32898
211.84004	33168
211.86145	33076
211.88284	33068
211.90424	33029
211.92563	33206
211.94702	33270
211.96841	33409
211.98981	33708
212.01122	33875
212.03261	33668
212.054	33715
212.07539	33769
212.09679	33899
212.11818	34046
212.13957	34171
212.16096	34082
212.18236	34101
212.20375	33984
212.22514	33943
212.24654	33912
212.26793	33914
212.28932	34037
212.3107	34137
212.33209	34180
212.35349	34243
212.37488	34422
212.39627	34475
212.41766	34452
212.43906	34362
212.46043	34228
212.48183	34177
212.50322	34213
212.52461	34248
212.54601	34280
212.56738	34514
212.58878	34754
212.61017	34704
212.63156	34898
212.65294	34836
212.67433	34964
212.69572	34891
212.7171	34994
212.73849	35253
212.75989	35788
212.78127	35993
212.80266	36032
212.82404	36015
212.84543	35840
212.86681	35774
212.8882	35886
212.90959	35962
212.93097	36045
212.95236	36118
212.97374	36065
212.99513	35876
213.01651	35735
213.0379	35658
213.05928	35602
213.08066	35702
213.10205	36072
213.12343	36116
213.14482	36115
213.1662	35996
213.18758	35844
213.20897	35816
213.23035	35728
213.25172	36024
213.27312	36229
213.29449	36618
213.31587	36593
213.33727	36528
213.35864	36465
213.38002	36662
213.4014	36512
213.42279	36565
213.44417	36785
213.46555	36639
213.48692	36288
213.5083	36075
213.52969	35929
213.55107	35683
213.57245	35639
213.59383	35780
213.6152	35730
213.63658	35755
213.65796	35800
213.67934	35601
213.70071	35676
213.72209	35673
213.74347	35845
213.76485	36180
213.78622	36270
213.8076	36243
213.82898	36280
213.85036	36492
213.87173	36656
213.89311	36430
213.91449	35968
213.93587	35932
213.95724	35951
213.97862	35844
214	35391
214.02138	35760
214.04274	36510
214.06412	36287
214.08549	36369
214.10687	36104
214.12825	36132
214.14961	36159
214.17099	36057
214.19237	36304
214.21375	36619
214.23511	36535
214.25648	36603
214.27786	36333
214.29922	36420
214.3206	36263
214.34198	36133
214.36334	36073
214.38472	35973
214.4061	35927
214.42746	35928
214.44884	35738
214.4702	35511
214.49158	35442
214.51294	35489
214.53432	35627
214.55568	35760
214.57706	35659
214.59842	35709
214.6198	35505
214.64116	35395
214.66254	35310
214.6839	35210
214.70528	35312
214.72664	35534
214.74802	35476
214.76938	35300
214.79074	35223
214.81212	35035
214.83348	35005
214.85484	34990
214.87622	34818
214.89758	34987
214.91895	34820
214.94031	34652
214.96169	34567
214.98305	34516
215.00441	34474
215.02577	34247
215.04715	34133
215.06851	34036
215.08987	34219
215.11124	34260
215.1326	33968
215.15396	33940
215.17534	34007
215.1967	34060
215.21806	34109
215.23943	33938
215.26079	33981
215.28215	33709
215.30351	33524
215.32487	33374
215.34624	33347
215.3676	33161
215.38896	33117
215.41032	32920
215.43169	32670
215.45305	32281
215.47441	32296
215.49577	32210
215.51714	32038
215.5385	31818
215.55986	31701
215.58121	31711
215.60257	31379
215.62393	31129
215.64529	30956
215.66666	30902
215.68802	31043
215.70937	30870
215.73073	30918
215.75209	30948
215.77345	30878
215.7948	30702
215.81616	30565
215.83752	30541
215.85889	30333
215.88023	30353
215.9016	30336
215.92296	30311
215.94431	30135
215.96567	29983
215.98701	30075
216.00838	30235
216.02974	30257
216.05109	30095
216.07245	29829
216.0938	29686
216.11516	29549
216.13651	29389
216.15787	29410
216.17921	29484
216.20058	29598
216.22192	29431
216.24329	29317
216.26463	29460
216.286	29375
216.30734	29323
216.32869	29290
216.35005	29035
216.3714	29029
216.39275	28957
216.41411	28924
216.43546	29022
216.4568	28935
216.47816	28769
216.49951	28520
216.52086	28315
216.54222	28110
216.56357	27961
216.58492	28179
216.60626	28175
216.62761	28068
216.64897	27884
216.67032	27988
216.69167	27920
216.71301	27834
216.73436	27797
216.75571	27855
216.77705	27853
216.79842	27691
216.81976	27420
216.84111	27260
216.86246	27301
216.8838	27007
216.90515	27049
216.9265	27011
216.94785	27283
216.96919	27070
216.99054	26791
217.01189	26516
217.03323	26377
217.05458	26287
217.07591	26254
217.09726	26168
217.11861	26169
217.13995	26109
217.1613	25907
217.18265	25888
217.20399	25909
217.22533	25957
217.24667	25857
217.26802	25812
217.28937	25794
217.31071	25622
217.33205	25479
217.35339	25364
217.37474	25336
217.39609	25186
217.41742	25034
217.43877	25102
217.46011	25265
217.48145	25283
217.50279	25105
217.52412	24853
217.54547	24816
217.56682	24616
217.58815	24726
217.6095	24684
217.63083	24725
217.65218	24688
217.67351	24604
217.69485	24448
217.71619	24367
217.73753	24197
217.75887	24134
217.78021	24136
217.80154	24151
217.82289	23999
217.84422	23816
217.86557	23688
217.8869	23634
217.90823	23560
217.92958	23408
217.95091	23341
217.97224	23322
217.99359	23144
218.01492	22972
218.03625	22869
218.05759	22728
218.07893	22730
218.10027	22784
218.1216	22757
218.14293	22633
218.16428	22570
218.18561	22494
218.20694	22461
218.22827	22340
218.2496	22217
218.27094	22039
218.29228	21832
218.31361	21705
218.33495	21548
218.35628	21557
218.37761	21491
218.39894	21481
218.42027	21274
218.4416	21212
218.46294	21121
218.48427	20918
218.5056	20910
218.52693	20954
218.54826	21049
218.5696	21196
218.59093	21140
218.61226	21171
218.63359	20931
218.65492	20870
218.67624	20642
218.69757	20644
218.7189	20523
218.74023	20540
218.76157	20512
218.7829	20366
218.80421	20226
218.82555	20168
218.84688	20068
218.86821	20128
218.88953	20212
218.91086	20262
218.93219	20183
218.95351	20023
218.97484	19954
218.99617	19900
219.01749	19903
219.03882	20028
219.06015	20107
219.08147	20197
219.1028	20208
219.12411	20121
219.14545	19980
219.16678	20008
219.1881	19991
219.20943	19782
219.23074	19721
219.25208	19717
219.27339	19621
219.29472	19420
219.31604	19363
219.33736	19301
219.35869	19195
219.38	19017
219.40134	18922
219.42265	18955
219.44397	18929
219.4653	18868
219.48662	18778
219.50793	18808
219.52927	18728
219.55058	18717
219.5719	18915
219.59323	18893
219.61455	18678
219.63586	18718
219.65718	18602
219.6785	18495
219.69983	18374
219.72115	18269
219.74246	18174
219.76378	18182
219.7851	18041
219.80641	17886
219.82773	17998
219.84906	17909
219.87038	17954
219.89169	17916
219.91301	17918
219.93433	17844
219.95564	17707
219.97696	17628
219.99828	17629
220.01959	17650
220.04091	17624
220.06223	17683
220.08354	17518
220.10486	17554
220.12617	17476
220.14748	17309
220.16879	17336
220.19011	17341
220.21143	17186
220.23274	17119
220.25406	17108
220.27536	16995
220.29668	16991
220.31799	16850
220.33931	17048
220.36063	16944
220.38193	16960
220.40324	16784
220.42456	16785
220.44586	16750
220.46718	16677
220.48849	16707
220.5098	16837
220.53111	16751
220.55243	16780
220.57373	16614
220.59505	16611
220.61636	16562
220.63766	16499
220.65898	16495
220.68028	16384
220.7016	16456
220.7229	16387
220.74422	16277
220.76552	16256
220.78683	16193
220.80814	16121
220.82945	15957
220.85075	15807
220.87206	15766
220.89337	15803
220.91467	15843
220.93599	15863
220.95729	15758
220.97859	15657
220.99991	15736
221.02121	15675
221.04251	15637
221.06381	15565
221.08513	15543
221.10643	15436
221.12773	15420
221.14903	15399
221.17035	15346
221.19165	15398
221.21295	15259
221.23425	15170
221.25555	15054
221.27686	15088
221.29817	15138
221.31947	15045
221.34077	15005
221.36208	14899
221.38338	14919
221.40468	14731
221.42598	14520
221.44728	14450
221.46858	14361
221.48988	14341
221.51118	14395
221.53249	14440
221.55379	14317
221.57509	14235
221.59639	14092
221.61769	14038
221.63899	13995
221.66028	13920
221.68158	14016
221.70288	13986
221.72418	14008
221.74548	13952
221.76678	13870
221.78807	13904
221.80937	13890
221.83067	13889
221.85197	13812
221.87326	13750
221.89456	13710
221.91586	13625
221.93716	13511
221.95845	13498
221.97975	13471
222.00105	13432
222.02234	13456
222.04364	13516
222.06493	13486
222.08623	13479
222.10753	13398
222.12881	13387
222.15012	13412
222.1714	13328
222.1927	13300
222.21399	13360
222.23529	13312
222.25658	13309
222.27788	13194
222.29916	13174
222.32045	12974
222.34175	13011
222.36304	13076
222.38434	13087
222.40562	13036
222.42691	13001
222.44821	12936
222.4695	12865
222.49078	12816
222.51208	12840
222.53337	12846
222.55466	12792
222.57594	12799
222.59724	12718
222.61853	12631
222.63982	12591
222.6611	12647
222.68239	12578
222.70369	12536
222.72498	12578
222.74626	12547
222.76755	12527
222.78883	12372
222.81012	12217
222.83141	12169
222.85269	12145
222.87398	12095
222.89526	12026
222.91656	11995
222.93785	11972
222.95914	11941
222.98041	11901
223.00169	11957
223.02298	11918
223.04427	11808
223.06555	11769
223.08684	11749
223.10812	11755
223.12941	11673
223.1507	11606
223.17198	11530
223.19325	11495
223.21454	11423
223.23582	11501
223.25711	11587
223.2784	11623
223.29967	11554
223.32095	11440
223.34224	11419
223.36353	11348
223.3848	11356
223.40608	11394
223.42737	11505
223.44864	11408
223.46992	11467
223.4912	11507
223.51248	11419
223.53377	11407
223.55504	11425
223.57632	11374
223.5976	11409
223.61888	11386
223.64015	11344
223.66144	11280
223.68271	11294
223.70399	11303
223.72527	11227
223.74655	11170
223.76782	11159
223.78911	11161
223.81038	11084
223.83165	11033
223.85294	11059
223.87421	11069
223.89549	11042
223.91676	11067
223.93803	11096
223.9593	11022
223.98059	10996
224.00186	11037
224.02313	10985
224.04442	10924
224.06569	10869
224.08696	10852
224.10823	10856
224.1295	10782
224.15077	10768
224.17206	10690
224.19333	10698
224.2146	10703
224.23587	10661
224.25714	10573
224.27841	10593
224.29968	10559
224.32095	10533
224.34222	10688
224.36349	10676
224.38477	10736
224.40604	10645
224.42731	10602
224.44858	10589
224.46985	10523
224.49112	10450
224.51239	10462
224.53366	10510
224.55493	10506
224.5762	10468
224.59747	10420
224.61873	10308
224.64	10345
224.66127	10301
224.68254	10446
224.70381	10420
224.72507	10427
224.74634	10333
224.76761	10276
224.78888	10252
224.81013	10283
224.83141	10316
224.85268	10364
224.87393	10419
224.8952	10447
224.91647	10380
224.93773	10352
224.959	10380
224.98026	10281
225.00153	10280
225.02278	10261
225.04405	10232
225.06532	10159
225.08658	10083
225.10785	10075
225.1291	10034
225.15036	10022
225.17163	9940
225.19289	9899
225.21416	9971
225.23541	9921
225.25668	9911
225.27794	9941
225.29919	9922
225.32047	9951
225.34172	9992
225.36298	9981
225.38425	9995
225.4055	9958
225.42676	10017
225.44801	9927
225.46928	9891
225.49054	9825
225.5118	9843
225.53305	9820
225.55431	9801
225.57558	9691
225.59683	9664
225.61809	9713
225.63934	9689
225.6606	9631
225.68185	9660
225.70311	9633
225.72437	9611
225.74562	9561
225.76688	9533
225.78813	9522
225.80939	9539
225.83064	9546
225.8519	9518
225.87315	9494
225.89441	9506
225.91566	9406
225.93692	9429
225.95818	9368
225.97943	9359
226.00069	9394
226.02194	9353
226.04318	9430
226.06444	9332
226.08569	9323
226.10695	9290
226.1282	9316
226.14944	9338
226.1707	9319
226.19196	9283
226.21321	9196
226.23445	9170
226.25571	9171
226.27696	9169
226.2982	9214
226.31946	9215
226.34071	9237
226.36195	9234
226.38321	9197
226.40445	9189
226.4257	9209
226.44695	9205
226.4682	9159
226.48946	9164
226.5107	9041
226.53195	9085
226.55319	9091
226.57443	9097
226.59569	9132
226.61693	8953
226.63818	8959
226.65942	8936
226.68066	8952
226.70192	8992
226.72316	8958
226.74442	8941
226.76566	8907
226.7869	9021
226.80814	8968
226.82939	9009
226.85063	8926
226.87187	8930
226.89311	8951
226.91437	8842
226.93561	8814
226.95685	8783
226.97809	8776
226.99933	8765
227.02058	8662
227.04182	8692
227.06306	8733
227.0843	8747
227.10555	8736
227.12679	8711
227.14803	8669
227.16927	8646
227.19051	8564
227.21175	8531
227.23299	8500
227.25423	8534
227.27547	8479
227.29671	8524
227.31795	8574
227.33919	8506
227.36043	8556
227.38167	8555
227.40289	8557
227.42413	8507
227.44537	8439
227.46661	8501
227.48785	8544
227.50908	8474
227.53032	8485
227.55156	8517
227.5728	8538
227.59402	8592
227.61526	8591
227.63651	8581
227.65775	8595
227.67897	8497
227.70021	8482
227.72144	8381
227.74268	8347
227.76392	8350
227.78514	8363
227.80638	8333
227.82761	8435
227.84885	8475
227.87007	8466
227.89131	8409
227.91254	8440
227.93378	8494
227.955	8498
227.97624	8433
227.99747	8456
228.01871	8458
228.03993	8452
228.06117	8474
228.0824	8462
228.10362	8388
228.12486	8299
228.14609	8365
228.16731	8425
228.18855	8417
228.20978	8443
228.231	8432
228.25223	8446
228.27347	8470
228.29469	8476
228.31592	8550
228.33714	8568
228.35837	8489
228.37959	8555
228.40083	8496
228.42206	8487
228.44328	8470
228.46451	8507
228.48573	8510
228.50696	8522
228.52818	8603
228.54941	8558
228.57063	8519
228.59186	8510
228.61308	8462
228.63431	8494
228.65553	8503
228.67676	8545
228.69798	8563
228.71921	8588
228.74043	8568
228.76166	8543
228.78287	8631
228.80409	8636
228.82532	8627
228.84654	8602
228.86777	8666
228.88899	8674
228.9102	8645
228.93143	8663
228.95265	8589
228.97388	8557
228.99509	8561
229.01631	8672
229.03754	8749
229.05875	8734
229.07997	8734
229.1012	8714
229.12241	8739
229.14363	8758
229.16484	8790
229.18607	8856
229.20728	8897
229.2285	8875
229.24973	8886
229.27094	8818
229.29216	8862
229.31337	8860
229.33458	8823
229.3558	8829
229.37701	8845
229.39824	8824
229.41945	8818
229.44067	8768
229.46188	8742
229.48309	8759
229.50432	8671
229.52553	8652
229.54674	8611
229.56795	8598
229.58917	8567
229.61038	8589
229.63159	8528
229.6528	8454
229.67403	8471
229.69524	8535
229.71645	8415
229.73766	8360
229.75887	8365
229.78008	8300
229.8013	8239
229.82251	8222
229.84372	8166
229.86493	8085
229.88614	8062
229.90735	7983
229.92856	7904
229.94977	7914
229.97098	7797
229.99219	7725
230.0134	7693
230.03461	7683
230.05582	7643
230.07703	7501
230.09824	7510
230.11943	7512
230.14064	7484
230.16185	7513
230.18306	7429
230.20427	7433
230.22548	7344
230.24667	7266
230.26788	7224
230.28909	7264
230.3103	7154
230.3315	7156
230.35271	7115
230.37392	7065
230.39511	7009
230.41632	7016
230.43753	6994
230.45872	6992
230.47993	7004
230.50114	6978
230.52234	7011
230.54355	6922
230.56474	6912
230.58595	6917
230.60715	6909
230.62836	6906
230.64955	6912
230.67076	6913
230.69196	6868
230.71317	6850
230.73436	6894
230.75557	6862
230.77676	6810
230.79796	6853
230.81917	6811
230.84036	6745
230.86156	6673
230.88277	6672
230.90396	6670
230.92516	6693
230.94637	6555
230.96756	6577
230.98875	6544
231.00995	6608
231.03114	6539
231.05235	6584
231.07355	6547
231.09474	6543
231.11594	6546
231.13713	6604
231.15833	6568
231.17952	6531
231.20071	6524
231.22192	6514
231.24312	6563
231.26431	6540
231.28551	6492
231.3067	6514
231.3279	6471
231.34909	6441
231.37027	6393
231.39146	6458
231.41266	6430
231.43385	6423
231.45505	6413
231.47624	6443
231.49744	6410
231.51863	6385
231.53983	6360
231.561	6325
231.5822	6340
231.60339	6321
231.62459	6321
231.64577	6344
231.66696	6274
231.68816	6296
231.70935	6176
231.73053	6193
231.75172	6177
231.77292	6249
231.7941	6225
231.81529	6194
231.83647	6198
231.85767	6120
231.87886	6104
231.90004	6180
231.92123	6125
231.94241	6116
231.96361	6106
231.98479	6073
232.00598	6064
232.02716	6028
232.04834	5985
232.06953	6017
232.09071	5987
232.11191	5979
232.13309	5982
232.15427	6008
232.17546	6000
232.19664	5964
232.21782	6021
232.23901	5939
232.26019	5883
232.28137	5878
232.30257	5924
232.32375	5953
232.34492	5852
232.3661	5866
232.38728	5834
232.40848	5815
232.42966	5851
232.45084	5781
232.47202	5827
232.49319	5856
232.51437	5779
232.53555	5793
232.55673	5739
232.57791	5758
232.59909	5720
232.62027	5715
232.64145	5693
232.66263	5711
232.68381	5703
232.70499	5681
232.72617	5649
232.74734	5648
232.76852	5625
232.7897	5620
232.81088	5603
232.83205	5642
232.85323	5650
232.8744	5631
232.89558	5618
232.91676	5563
232.93793	5528
232.95911	5513
232.98029	5453
233.00146	5433
233.02263	5399
233.04381	5427
233.06499	5406
233.08615	5419
233.10733	5424
233.12851	5367
233.14967	5392
233.17085	5394
233.19202	5383
233.2132	5379
233.23438	5430
233.25554	5420
233.27672	5428
233.29788	5371
233.31906	5411
233.34023	5410
233.36139	5458
233.38257	5403
233.40373	5394
233.42491	5382
233.44608	5372
233.46724	5358
233.48842	5382
233.50958	5275
233.53075	5316
233.55193	5358
233.57309	5387
233.59425	5365
233.61542	5373
233.6366	5371
233.65776	5353
233.67892	5353
233.70009	5345
233.72127	5349
233.74243	5362
233.7636	5385
233.78476	5378
233.80592	5360
233.82709	5340
233.84825	5338
233.86942	5314
233.89058	5278
233.91174	5336
233.93291	5287
233.95407	5289
233.97523	5262
233.9964	5247
234.01756	5306
234.03873	5280
234.05989	5293
234.08105	5254
234.10222	5218
234.12338	5202
234.14453	5214
234.1657	5167
234.18686	5214
234.20802	5261
234.22919	5261
234.25034	5262
234.2715	5242
234.29266	5240
234.31383	5184
234.33498	5184
234.35614	5155
234.3773	5134
234.39845	5128
234.41962	5136
234.44078	5123
234.46193	5106
234.48309	5102
234.50424	5088
234.52541	5136
234.54655	5151
234.56772	5119
234.58887	5070
234.61003	5045
234.63118	5047
234.65234	5051
234.67349	5046
234.69466	5019
234.71581	4993
234.73695	4997
234.75812	4994
234.77927	4979
234.80043	5003
234.82158	5013
234.84273	4961
234.86388	5003
234.88504	4963
234.90619	5029
234.92734	5012
234.94849	4999
234.96965	4958
234.9908	4972
235.01195	4941
235.0331	4964
235.05424	4951
235.07539	4959
235.09656	4941
235.11771	4940
235.13885	4978
235.16	4915
235.18115	4934
235.2023	4943
235.22345	4896
235.2446	4943
235.26575	4903
235.2869	4859
235.30804	4859
235.32919	4858
235.35034	4821
235.37148	4808
235.39262	4814
235.41377	4783
235.43492	4822
235.45607	4832
235.47722	4800
235.49835	4798
235.5195	4789
235.54065	4756
235.5618	4786
235.58293	4734
235.60408	4798
235.62523	4761
235.64638	4768
235.66751	4785
235.68866	4744
235.70981	4745
235.73094	4709
235.75209	4685
235.77322	4600
