Date and Time:                Mon Oct 10 12:39:48.000 2022
Software Version:             4.31.30023.0
Temperature (C):              -40
Model:                        DU940P_BU2
Data Type:                    Counts
Acquisition Mode:             Single Scan
Trigger Mode:                 Internal
Exposure Time (secs):         55
Readout Mode:                 Full Vertical Binning
Horizontal binning:           1
Extended Dynamic Range:       off
Horizontally flipped:         false
Vertical Shift Speed (usecs): 14.51
Pixel Readout Rate (MHz):     3
Baseline Clamp:               ON
Clock Amplitude:              Normal
Output Amplifier:             High Capacity
Serial Number:                23634
Pre-Amplifier Gain:           1.000000
Spurious Noise Filter Mode:   No Filter
Photon counted:               false
Data Averaging Filter Mode:   No Filter
SR500i:
Serial Number:                
Wavelength (nm):              214
Grating Groove Density (l/mm):1199.47
Grating Blaze:                500
Output Flipper Port:          Direct
Accessory Output Port 1:      Off
Accessory Output Port 2:      Off
Accessory Output Port 3:      Off
Accessory Input Port:         On



192.0349	529
192.05646	514
192.078	510
192.09956	491
192.12112	508
192.14268	508
192.16425	488
192.18581	474
192.20735	451
192.22891	468
192.25047	464
192.27203	475
192.29358	464
192.31514	473
192.3367	479
192.35826	457
192.37981	478
192.40137	476
192.42293	488
192.44449	477
192.46603	456
192.48759	475
192.50916	500
192.5307	493
192.55226	491
192.57381	474
192.59537	472
192.61693	494
192.63847	491
192.66003	496
192.68159	489
192.70314	482
192.7247	464
192.74625	480
192.76781	510
192.78935	526
192.81091	514
192.83246	513
192.85402	506
192.87556	499
192.89713	482
192.91867	508
192.94023	510
192.96178	523
192.98334	519
193.00488	520
193.02643	507
193.04799	483
193.06953	499
193.09109	497
193.11264	515
193.13419	517
193.15575	523
193.17729	523
193.19884	524
193.2204	518
193.24194	507
193.26349	528
193.28505	503
193.30659	523
193.32814	526
193.34969	524
193.37125	541
193.39279	520
193.41434	522
193.43588	521
193.45744	515
193.47899	514
193.50053	527
193.52208	532
193.54362	533
193.56517	527
193.58673	549
193.60828	527
193.62982	544
193.65137	534
193.67291	537
193.69446	519
193.716	509
193.73755	519
193.75909	533
193.78064	534
193.80219	518
193.82375	519
193.84529	534
193.86684	530
193.88838	525
193.90993	538
193.93147	534
193.953	542
193.97455	524
193.99609	523
194.01764	532
194.03918	533
194.06073	536
194.08228	535
194.10382	535
194.12537	536
194.14691	532
194.16846	527
194.18999	540
194.21153	537
194.23308	536
194.25462	538
194.27617	533
194.29771	531
194.31924	543
194.34079	537
194.36234	550
194.38388	560
194.40541	526
194.42696	544
194.4485	539
194.47005	531
194.49158	524
194.51312	500
194.53467	496
194.5562	504
194.57774	505
194.59929	512
194.62082	497
194.64236	519
194.66391	508
194.68544	498
194.70699	510
194.72852	549
194.75006	531
194.77161	506
194.79314	507
194.81468	533
194.83621	540
194.85776	538
194.87929	524
194.90083	512
194.92236	522
194.94391	542
194.96544	549
194.98698	539
195.00851	529
195.03006	508
195.05159	529
195.07312	533
195.09467	547
195.1162	559
195.13774	548
195.15927	554
195.1808	530
195.20235	522
195.22388	542
195.24541	574
195.26695	560
195.28848	561
195.31001	560
195.33156	561
195.35309	557
195.37462	550
195.39616	552
195.41769	565
195.43922	570
195.46075	571
195.48228	587
195.50383	570
195.52536	565
195.54689	559
195.56842	563
195.58995	567
195.6115	575
195.63303	577
195.65456	588
195.67609	594
195.69762	582
195.71915	583
195.74068	584
195.76221	590
195.78374	568
195.80528	578
195.82681	577
195.84834	571
195.86987	579
195.8914	604
195.91293	575
195.93446	595
195.95599	595
195.97752	590
195.99905	605
196.02058	580
196.0421	577
196.06363	595
196.08516	596
196.10669	596
196.12822	599
196.14975	596
196.17128	597
196.19281	602
196.21434	593
196.23586	622
196.25739	604
196.27892	607
196.30045	603
196.32198	615
196.34351	612
196.36502	622
196.38655	611
196.40808	614
196.42961	617
196.45113	610
196.47266	620
196.49419	621
196.5157	614
196.53723	633
196.55876	626
196.58029	621
196.60181	631
196.62334	633
196.64485	634
196.66638	644
196.68791	623
196.70943	630
196.73096	646
196.75249	641
196.774	637
196.79553	649
196.81705	643
196.83858	651
196.86009	653
196.88162	644
196.90314	653
196.92467	647
196.94618	652
196.96771	634
196.98923	634
197.01076	635
197.03227	631
197.0538	668
197.07532	636
197.09683	647
197.11836	652
197.13988	642
197.16141	636
197.18292	664
197.20444	669
197.22597	656
197.24748	667
197.269	659
197.29053	675
197.31204	687
197.33356	683
197.35509	667
197.3766	657
197.39812	691
197.41963	681
197.44116	697
197.46268	679
197.48419	684
197.50571	681
197.52722	694
197.54875	689
197.57027	698
197.59178	711
197.6133	703
197.63481	700
197.65633	690
197.67784	698
197.69937	701
197.72089	741
197.7424	734
197.76392	721
197.78543	731
197.80695	719
197.82846	709
197.84998	724
197.87149	714
197.89301	722
197.91452	741
197.93604	734
197.95755	731
197.97906	731
198.00058	733
198.02209	739
198.04361	740
198.06512	742
198.08664	738
198.10814	751
198.12965	727
198.15117	745
198.17268	743
198.1942	763
198.21571	741
198.23723	755
198.25873	746
198.28024	767
198.30176	756
198.32327	760
198.34479	762
198.36629	774
198.3878	782
198.40932	769
198.43083	775
198.45233	773
198.47385	787
198.49536	792
198.51686	788
198.53838	798
198.55989	787
198.58139	806
198.60291	795
198.62442	807
198.64592	817
198.66743	801
198.68895	834
198.71045	815
198.73196	818
198.75346	828
198.77498	831
198.79648	823
198.81799	832
198.83949	821
198.86101	833
198.88251	842
198.90402	835
198.92552	845
198.94704	858
198.96854	853
198.99005	846
199.01155	848
199.03307	866
199.05457	860
199.07607	865
199.09758	876
199.11908	869
199.14059	875
199.16209	863
199.18359	897
199.20511	884
199.22661	892
199.24811	906
199.26961	910
199.29112	912
199.31262	930
199.33412	907
199.35564	901
199.37714	907
199.39864	908
199.42014	970
199.44164	940
199.46315	943
199.48465	930
199.50615	946
199.52765	937
199.54915	962
199.57065	944
199.59216	948
199.61366	938
199.63516	949
199.65666	968
199.67816	979
199.69966	955
199.72116	972
199.74266	959
199.76416	975
199.78566	990
199.80716	987
199.82866	1016
199.85016	1013
199.87166	997
199.89316	1019
199.91466	1014
199.93616	1030
199.95766	1037
199.97916	1032
200.00066	1045
200.02216	1040
200.04366	1077
200.06516	1054
200.08664	1062
200.10814	1074
200.12964	1050
200.15114	1083
200.17264	1101
200.19414	1088
200.21562	1114
200.23712	1097
200.25862	1095
200.28012	1093
200.30161	1094
200.3231	1095
200.3446	1130
200.3661	1124
200.38759	1134
200.40909	1140
200.43059	1162
200.45207	1154
200.47357	1140
200.49507	1147
200.51656	1158
200.53806	1167
200.55956	1182
200.58104	1180
200.60254	1181
200.62402	1193
200.64552	1189
200.66702	1198
200.68851	1195
200.71001	1266
200.73149	1222
200.75299	1231
200.77448	1234
200.79597	1235
200.81746	1234
200.83896	1251
200.86044	1236
200.88194	1253
200.90343	1269
200.92491	1268
200.94641	1301
200.9679	1274
200.9894	1297
201.01088	1298
201.03236	1283
201.05386	1321
201.07535	1323
201.09683	1324
201.11833	1340
201.13982	1353
201.1613	1344
201.1828	1353
201.20428	1385
201.22577	1387
201.24725	1369
201.26875	1392
201.29024	1385
201.31172	1411
201.33321	1410
201.35469	1418
201.37619	1436
201.39767	1453
201.41916	1448
201.44064	1458
201.46213	1470
201.48361	1482
201.50511	1483
201.5266	1505
201.54808	1497
201.56956	1506
201.59105	1546
201.61253	1534
201.63402	1550
201.6555	1564
201.67699	1561
201.69847	1554
201.71996	1567
201.74144	1614
201.76292	1628
201.78441	1624
201.80589	1639
201.82738	1642
201.84886	1637
201.87035	1644
201.89183	1671
201.9133	1678
201.93478	1704
201.95627	1677
201.97775	1707
201.99924	1707
202.02072	1704
202.04221	1724
202.06367	1741
202.08516	1732
202.10664	1742
202.12813	1762
202.14961	1781
202.17108	1790
202.19257	1795
202.21405	1805
202.23553	1819
202.257	1822
202.27849	1812
202.29997	1844
202.32144	1845
202.34293	1830
202.36441	1820
202.38588	1879
202.40736	1884
202.42883	1877
202.45032	1907
202.4718	1921
202.49327	1892
202.51476	2169
202.53622	1907
202.55771	1989
202.57918	1992
202.60066	2025
202.62213	2007
202.64362	2038
202.66508	2066
202.68657	2045
202.70804	2063
202.72952	2110
202.75099	2092
202.77248	2128
202.79395	2104
202.81543	2156
202.8369	2148
202.85837	2167
202.87985	2188
202.90132	2188
202.92279	2236
202.94427	2262
202.96574	2256
202.98721	2267
203.0087	2284
203.03017	2274
203.05164	2320
203.0731	2380
203.09459	2424
203.11606	2388
203.13753	2416
203.159	2424
203.18048	2420
203.20195	2452
203.22342	2473
203.24489	2469
203.26636	2481
203.28783	2486
203.30931	2515
203.33078	2512
203.35225	2539
203.37372	2556
203.39519	2588
203.41666	2552
203.43813	2593
203.45959	2626
203.48106	2632
203.50253	2627
203.524	2646
203.54547	2682
203.56694	2716
203.58841	2726
203.60988	2784
203.63135	2779
203.65282	2775
203.67429	2813
203.69576	2814
203.71722	2846
203.73869	2841
203.76016	2867
203.78163	2888
203.80309	2869
203.82455	2895
203.84602	2928
203.86749	2935
203.88896	2948
203.91043	3003
203.93188	3016
203.95335	3039
203.97482	3043
203.99629	3035
204.01775	3057
204.03922	3126
204.06068	3128
204.08215	3145
204.10361	3190
204.12508	3238
204.14655	3222
204.168	3231
204.18947	3255
204.21094	3239
204.23239	3279
204.25386	3328
204.27531	3372
204.29678	3357
204.31825	3353
204.33971	3394
204.36118	3420
204.38263	3474
204.4041	3504
204.42555	3568
204.44702	3536
204.46848	3549
204.48994	3600
204.5114	3635
204.53287	3672
204.55432	3723
204.57579	3736
204.59724	3740
204.6187	3789
204.64017	3819
204.66162	3863
204.68309	3892
204.70454	3934
204.726	3937
204.74747	3958
204.76892	3981
204.79037	4005
204.81184	4046
204.8333	4117
204.85475	4100
204.87621	4101
204.89767	4179
204.91913	4173
204.94058	4195
204.96204	4258
204.98351	4301
205.00496	4341
205.02641	4388
205.04787	4386
205.06932	4472
205.09077	4462
205.11224	4502
205.1337	4546
205.15515	4582
205.17661	4641
205.19806	4648
205.21951	4687
205.24097	4741
205.26242	4762
205.28387	4815
205.30533	4850
205.32678	4878
205.34824	4904
205.36969	4891
205.39114	4926
205.4126	4941
205.43405	4988
205.45551	5016
205.47696	5087
205.49841	5136
205.51987	5129
205.54132	5171
205.56277	5253
205.58421	5305
205.60567	5339
205.62712	5367
205.64857	5423
205.67003	5444
205.69148	5521
205.71292	5573
205.73438	5605
205.75583	5671
205.77728	5733
205.79872	5731
205.82018	5829
205.84163	5902
205.86308	5968
205.88452	5992
205.90598	6068
205.92743	6095
205.94887	6120
205.97032	6196
205.99178	6231
206.01321	6310
206.03467	6318
206.05611	6419
206.07756	6366
206.09901	6439
206.12045	6492
206.14191	6509
206.16335	6549
206.1848	6650
206.20624	6672
206.22769	6715
206.24913	6775
206.27058	6842
206.29202	6866
206.31348	6952
206.33492	7007
206.35637	7056
206.37781	7065
206.39925	7093
206.4207	7192
206.44214	7231
206.46359	7317
206.48503	7305
206.50647	7355
206.52792	7540
206.54936	7576
206.5708	7624
206.59224	7680
206.61369	7687
206.63513	7770
206.65657	7773
206.67802	7871
206.69946	7868
206.7209	7872
206.74234	7958
206.76378	8030
206.78523	8078
206.80667	8140
206.82811	8136
206.84955	8195
206.87099	8202
206.89243	8228
206.91386	8369
206.93532	8536
206.95676	8617
206.9782	8625
206.99963	8630
207.02107	8774
207.04251	8837
207.06395	8899
207.08539	8965
207.10683	9002
207.12827	9083
207.1497	9062
207.17114	9101
207.19258	9246
207.21402	9351
207.23546	9367
207.2569	9414
207.27832	9587
207.29976	9691
207.3212	9803
207.34264	9773
207.36407	9800
207.38551	9895
207.40695	9970
207.42838	10075
207.44981	10227
207.47125	10323
207.49269	10388
207.51413	10479
207.53555	10493
207.55699	10567
207.57843	10591
207.59985	10709
207.62129	10851
207.64273	10920
207.66417	10924
207.68559	10984
207.70703	11066
207.72845	11150
207.74989	11199
207.77133	11190
207.79276	11305
207.81419	11365
207.83562	11398
207.85706	11450
207.87849	11553
207.89992	11632
207.92136	11692
207.94278	11816
207.96422	11968
207.98564	12050
208.00708	12114
208.0285	12197
208.04994	12255
208.07137	12304
208.09279	12305
208.11423	12430
208.13565	12472
208.15709	12548
208.17851	12528
208.19994	12654
208.22137	12788
208.2428	12975
208.26422	12953
208.28566	12978
208.30708	13098
208.32851	13168
208.34995	13241
208.37137	13373
208.39279	13620
208.41422	13837
208.43565	13900
208.45708	13920
208.4785	14008
208.49992	14069
208.52135	14044
208.54279	14191
208.56421	14282
208.58563	14417
208.60706	14520
208.62848	14530
208.6499	14523
208.67133	14523
208.69275	14613
208.71417	14830
208.7356	15029
208.75703	15170
208.77846	15331
208.79988	15328
208.8213	15314
208.84273	15388
208.86415	15567
208.88556	15755
208.90698	15935
208.92841	16216
208.94983	16289
208.97125	16353
208.99268	16425
209.0141	16580
209.03552	16583
209.05695	16704
209.07837	16792
209.09978	16940
209.1212	16870
209.14262	16958
209.16405	17089
209.18547	17144
209.20688	17245
209.2283	17286
209.24973	17348
209.27115	17421
209.29256	17483
209.31398	17648
209.3354	17782
209.35683	17859
209.37823	18104
209.39966	18331
209.42108	18563
209.44249	18641
209.46391	18598
209.48532	18762
209.50674	18895
209.52817	18878
209.54958	18904
209.571	19080
209.59241	19123
209.61383	19145
209.63524	19070
209.65666	19127
209.67807	19411
209.69949	19669
209.7209	19790
209.74232	19885
209.76373	20035
209.78516	19989
209.80656	20130
209.82797	20162
209.8494	20308
209.8708	20486
209.89223	20730
209.91364	20856
209.93504	21038
209.95647	21034
209.97787	21106
209.99928	21166
210.02071	21417
210.04211	21415
210.06352	21500
210.08493	21699
210.10635	21760
210.12776	21802
210.14917	21864
210.17058	22079
210.19199	22374
210.21341	22571
210.23482	22768
210.25623	22685
210.27763	22813
210.29904	22925
210.32045	23104
210.34186	23195
210.36327	23400
210.38469	23457
210.4061	23601
210.42751	23605
210.44891	23704
210.47032	23926
210.49173	24110
210.51314	24270
210.53455	24272
210.55595	24400
210.57736	24418
210.59877	24527
210.62018	24647
210.64157	24801
210.66298	24783
210.68439	24787
210.7058	24812
210.7272	24926
210.74861	25010
210.77002	25277
210.79143	25532
210.81282	25584
210.83423	25758
210.85564	25964
210.87704	26118
210.89844	26256
210.91985	26351
210.94125	26499
210.96266	26699
210.98405	26786
211.00546	26748
211.02687	26861
211.04826	27084
211.06967	27147
211.09108	27073
211.11247	27292
211.13388	27581
211.15529	27706
211.17668	27605
211.19809	27322
211.21948	27165
211.24089	27226
211.2623	27198
211.28369	27368
211.3051	27485
211.32649	27652
211.3479	27530
211.36929	27638
211.3907	27939
211.41209	28083
211.43349	28174
211.4549	28393
211.47629	28401
211.4977	28526
211.51909	28571
211.54048	28630
211.56189	28951
211.58328	29039
211.60469	29145
211.62608	29154
211.64748	29440
211.66887	29904
211.69028	30108
211.71167	29981
211.73306	29886
211.75447	30028
211.77586	30139
211.79726	30173
211.81865	30366
211.84004	30633
211.86145	30628
211.88284	30582
211.90424	30593
211.92563	30539
211.94702	30745
211.96841	30934
211.98981	31269
212.01122	31253
212.03261	31139
212.054	31120
212.07539	31228
212.09679	31393
212.11818	31513
212.13957	31652
212.16096	31628
212.18236	31693
212.20375	31565
212.22514	31399
212.24654	31394
212.26793	31505
212.28932	31441
212.3107	31595
212.33209	31717
212.35349	31777
212.37488	31820
212.39627	31928
212.41766	32006
212.43906	31901
212.46043	31735
212.48183	31657
212.50322	31794
212.52461	31793
212.54601	31847
212.56738	32006
212.58878	32269
212.61017	32291
212.63156	32459
212.65294	32391
212.67433	32402
212.69572	32464
212.7171	32601
212.73849	32853
212.75989	33252
212.78127	33376
212.80266	33381
212.82404	33450
212.84543	33342
212.86681	33401
212.8882	33356
212.90959	33474
212.93097	33595
212.95236	33649
212.97374	33624
212.99513	33356
213.01651	33299
213.0379	33157
213.05928	33114
213.08066	33268
213.10205	33597
213.12343	33854
213.14482	33668
213.1662	33561
213.18758	33500
213.20897	33413
213.23035	33344
213.25172	33683
213.27312	33904
213.29449	34251
213.31587	34259
213.33727	34180
213.35864	34166
213.38002	34254
213.4014	34206
213.42279	34183
213.44417	34346
213.46555	34246
213.48692	33980
213.5083	33720
213.52969	33647
213.55107	33393
213.57245	33378
213.59383	33368
213.6152	33508
213.63658	33468
213.65796	33497
213.67934	33359
213.70071	33439
213.72209	33575
213.74347	33701
213.76485	33867
213.78622	34131
213.8076	34086
213.82898	34055
213.85036	34211
213.87173	34439
213.89311	34133
213.91449	33836
213.93587	33802
213.95724	33807
213.97862	33688
214	33507
214.02138	33779
214.04274	34222
214.06412	34244
214.08549	34210
214.10687	34020
214.12825	33938
214.14961	34066
214.17099	34004
214.19237	34237
214.21375	34503
214.23511	34473
214.25648	34435
214.27786	34329
214.29922	34461
214.3206	34247
214.34198	34098
214.36334	34165
214.38472	33910
214.4061	33943
214.42746	33917
214.44884	33762
214.4702	33599
214.49158	33502
214.51294	33558
214.53432	33753
214.55568	33830
214.57706	33716
214.59842	33744
214.6198	33672
214.64116	33596
214.66254	33438
214.6839	33402
214.70528	33501
214.72664	33680
214.74802	33713
214.76938	33494
214.79074	33439
214.81212	33291
214.83348	33315
214.85484	33252
214.87622	33148
214.89758	33195
214.91895	33102
214.94031	32965
214.96169	32808
214.98305	32794
215.00441	32749
215.02577	32612
215.04715	32409
215.06851	32488
215.08987	32544
215.11124	32521
215.1326	32448
215.15396	32273
215.17534	32423
215.1967	32485
215.21806	32493
215.23943	32341
215.26079	32412
215.28215	32148
215.30351	31994
215.32487	31883
215.34624	31806
215.3676	31773
215.38896	31620
215.41032	31492
215.43169	31156
215.45305	30927
215.47441	30994
215.49577	30797
215.51714	30738
215.5385	30494
215.55986	30401
215.58121	30406
215.60257	30076
215.62393	29724
215.64529	29630
215.66666	29725
215.68802	29728
215.70937	29578
215.73073	29649
215.75209	29726
215.77345	29547
215.7948	29347
215.81616	29390
215.83752	29295
215.85889	29247
215.88023	29163
215.9016	29187
215.92296	29163
215.94431	28884
215.96567	28917
215.98701	28936
216.00838	29103
216.02974	29133
216.05109	29048
216.07245	28780
216.0938	28597
216.11516	28455
216.13651	28346
216.15787	28386
216.17921	28434
216.20058	28507
216.22192	28353
216.24329	28352
216.26463	28334
216.286	28322
216.30734	28318
216.32869	28234
216.35005	28122
216.3714	27947
216.39275	27894
216.41411	27961
216.43546	27981
216.4568	27895
216.47816	27723
216.49951	27531
216.52086	27355
216.54222	27170
216.56357	27110
216.58492	27200
216.60626	27198
216.62761	27120
216.64897	26959
216.67032	27024
216.69167	26968
216.71301	26947
216.73436	26838
216.75571	26938
216.77705	26966
216.79842	26836
216.81976	26530
216.84111	26419
216.86246	26349
216.8838	26236
216.90515	26240
216.9265	26260
216.94785	26446
216.96919	26274
216.99054	26056
217.01189	25764
217.03323	25572
217.05458	25476
217.07591	25375
217.09726	25340
217.11861	25456
217.13995	25334
217.1613	25204
217.18265	25232
217.20399	25221
217.22533	25203
217.24667	25081
217.26802	25184
217.28937	25020
217.31071	24979
217.33205	24732
217.35339	24619
217.37474	24599
217.39609	24457
217.41742	24383
217.43877	24390
217.46011	24582
217.48145	24572
217.50279	24418
217.52412	24186
217.54547	24147
217.56682	24129
217.58815	24073
217.6095	24008
217.63083	24092
217.65218	24009
217.67351	23967
217.69485	23800
217.71619	23721
217.73753	23655
217.75887	23567
217.78021	23521
217.80154	23573
217.82289	23426
217.84422	23256
217.86557	23141
217.8869	23065
217.90823	22971
217.92958	22827
217.95091	22772
217.97224	22731
217.99359	22673
218.01492	22486
218.03625	22312
218.05759	22182
218.07893	22283
218.10027	22213
218.1216	22231
218.14293	22200
218.16428	22094
218.18561	22002
218.20694	22006
218.22827	21825
218.2496	21760
218.27094	21576
218.29228	21426
218.31361	21229
218.33495	21151
218.35628	20990
218.37761	21066
218.39894	20965
218.42027	20931
218.4416	20736
218.46294	20750
218.48427	20547
218.5056	20467
218.52693	20570
218.54826	20604
218.5696	20737
218.59093	20823
218.61226	20626
218.63359	20506
218.65492	20397
218.67624	20310
218.69757	20149
218.7189	20158
218.74023	20165
218.76157	20107
218.7829	20008
218.80421	19811
218.82555	19780
218.84688	19785
218.86821	19693
218.88953	19763
218.91086	19886
218.93219	19855
218.95351	19731
218.97484	19589
218.99617	19507
219.01749	19568
219.03882	19677
219.06015	19686
219.08147	19879
219.1028	19903
219.12411	19764
219.14545	19622
219.16678	19679
219.1881	19649
219.20943	19485
219.23074	19445
219.25208	19396
219.27339	19321
219.29472	19208
219.31604	19075
219.33736	18989
219.35869	18961
219.38	18770
219.40134	18631
219.42265	18630
219.44397	18605
219.4653	18541
219.48662	18433
219.50793	18431
219.52927	18407
219.55058	18453
219.5719	18576
219.59323	18561
219.61455	18458
219.63586	18416
219.65718	18307
219.6785	18265
219.69983	18156
219.72115	18022
219.74246	17961
219.76378	17955
219.7851	17810
219.80641	17690
219.82773	17616
219.84906	17703
219.87038	17728
219.89169	17718
219.91301	17724
219.93433	17591
219.95564	17433
219.97696	17421
219.99828	17380
220.01959	17426
220.04091	17395
220.06223	17328
220.08354	17256
220.10486	17370
220.12617	17195
220.14748	17155
220.16879	17098
220.19011	17062
220.21143	17107
220.23274	16909
220.25406	16929
220.27536	16862
220.29668	16807
220.31799	16715
220.33931	16832
220.36063	16817
220.38193	16691
220.40324	16631
220.42456	16613
220.44586	16551
220.46718	16565
220.48849	16589
220.5098	16564
220.53111	16647
220.55243	16560
220.57373	16572
220.59505	16448
220.61636	16482
220.63766	16374
220.65898	16268
220.68028	16341
220.7016	16264
220.7229	16190
220.74422	16083
220.76552	16092
220.78683	16040
220.80814	15957
220.82945	15770
220.85075	15670
220.87206	15641
220.89337	15696
220.91467	15688
220.93599	15669
220.95729	15561
220.97859	15588
220.99991	15555
221.02121	15518
221.04251	15485
221.06381	15399
221.08513	15379
221.10643	15379
221.12773	15358
221.14903	15282
221.17035	15236
221.19165	15237
221.21295	15242
221.23425	15066
221.25555	15004
221.27686	15003
221.29817	14959
221.31947	14942
221.34077	14877
221.36208	14795
221.38338	14764
221.40468	14650
221.42598	14418
221.44728	14349
221.46858	14310
221.48988	14339
221.51118	14212
221.53249	14302
221.55379	14312
221.57509	14083
221.59639	13957
221.61769	13955
221.63899	13868
221.66028	13892
221.68158	13945
221.70288	13947
221.72418	13893
221.74548	13782
221.76678	13777
221.78807	13751
221.80937	13816
221.83067	13768
221.85197	13772
221.87326	13647
221.89456	13609
221.91586	13493
221.93716	13486
221.95845	13412
221.97975	13383
222.00105	13385
222.02234	13311
222.04364	13363
222.06493	13336
222.08623	13382
222.10753	13332
222.12881	13288
222.15012	13274
222.1714	13267
222.1927	13243
222.21399	13278
222.23529	13286
222.25658	13225
222.27788	13053
222.29916	13035
222.32045	12964
222.34175	12972
222.36304	12975
222.38434	12966
222.40562	12984
222.42691	12865
222.44821	12848
222.4695	12849
222.49078	12724
222.51208	12777
222.53337	12756
222.55466	12741
222.57594	12735
222.59724	12656
222.61853	12525
222.63982	12547
222.6611	12497
222.68239	12527
222.70369	12408
222.72498	12479
222.74626	12519
222.76755	12451
222.78883	12325
222.81012	12178
222.83141	12126
222.85269	12043
222.87398	11994
222.89526	11993
222.91656	11922
222.93785	11959
222.95914	11898
222.98041	11895
223.00169	11862
223.02298	11824
223.04427	11747
223.06555	11686
223.08684	11703
223.10812	11676
223.12941	11617
223.1507	11535
223.17198	11505
223.19325	11447
223.21454	11314
223.23582	11396
223.25711	11553
223.2784	11532
223.29967	11476
223.32095	11415
223.34224	11321
223.36353	11321
223.3848	11230
223.40608	11356
223.42737	11383
223.44864	11466
223.46992	11439
223.4912	11442
223.51248	11405
223.53377	11327
223.55504	11349
223.57632	11324
223.5976	11343
223.61888	11321
223.64015	11280
223.66144	11239
223.68271	11246
223.70399	11252
223.72527	11178
223.74655	11153
223.76782	11077
223.78911	11047
223.81038	11001
223.83165	10940
223.85294	10933
223.87421	11015
223.89549	11035
223.91676	11031
223.93803	11016
223.9593	11000
223.98059	10968
224.00186	10988
224.02313	10975
224.04442	10894
224.06569	10806
224.08696	10860
224.10823	10760
224.1295	10714
224.15077	10707
224.17206	10723
224.19333	10716
224.2146	10647
224.23587	10623
224.25714	10517
224.27841	10491
224.29968	10506
224.32095	10511
224.34222	10575
224.36349	10672
224.38477	10646
224.40604	10635
224.42731	10541
224.44858	10553
224.46985	10452
224.49112	10388
224.51239	10434
224.53366	10427
224.55493	10436
224.5762	10408
224.59747	10408
224.61873	10355
224.64	10300
224.66127	10252
224.68254	10334
224.70381	10415
224.72507	10367
224.74634	10299
224.76761	10239
224.78888	10186
224.81013	10281
224.83141	10251
224.85268	10354
224.87393	10303
224.8952	10354
224.91647	10329
224.93773	10220
224.959	10294
224.98026	10231
225.00153	10264
225.02278	10243
225.04405	10156
225.06532	10108
225.08658	10031
225.10785	10009
225.1291	10036
225.15036	9962
225.17163	9884
225.19289	9837
225.21416	9891
225.23541	9893
225.25668	9809
225.27794	9871
225.29919	9838
225.32047	9842
225.34172	9936
225.36298	9940
225.38425	9945
225.4055	9895
225.42676	9895
225.44801	9912
225.46928	9920
225.49054	9798
225.5118	9824
225.53305	9778
225.55431	9783
225.57558	9644
225.59683	9614
225.61809	9648
225.63934	9640
225.6606	9640
225.68185	9564
225.70311	9635
225.72437	9520
225.74562	9497
225.76688	9464
225.78813	9523
225.80939	9490
225.83064	9483
225.8519	9501
225.87315	9481
225.89441	9443
225.91566	9389
225.93692	9356
225.95818	9369
225.97943	9282
226.00069	9351
226.02194	9361
226.04318	9334
226.06444	9307
226.08569	9211
226.10695	9296
226.1282	9258
226.14944	9273
226.1707	9261
226.19196	9174
226.21321	9149
226.23445	9170
226.25571	9131
226.27696	9126
226.2982	9210
226.31946	9281
226.34071	9137
226.36195	9143
226.38321	9128
226.40445	9153
226.4257	9098
226.44695	9163
226.4682	9122
226.48946	9121
226.5107	8996
226.53195	9076
226.55319	9031
226.57443	9073
226.59569	9022
226.61693	8917
226.63818	8927
226.65942	8865
226.68066	8859
226.70192	8952
226.72316	8933
226.74442	8911
226.76566	8917
226.7869	8937
226.80814	8945
226.82939	8951
226.85063	8847
226.87187	8862
226.89311	8815
226.91437	8802
226.93561	8784
226.95685	8752
226.97809	8700
226.99933	8718
227.02058	8668
227.04182	8623
227.06306	8668
227.0843	8745
227.10555	8738
227.12679	8656
227.14803	8642
227.16927	8593
227.19051	8507
227.21175	8434
227.23299	8520
227.25423	8450
227.27547	8432
227.29671	8440
227.31795	8500
227.33919	8489
227.36043	8458
227.38167	8457
227.40289	8503
227.42413	8427
227.44537	8452
227.46661	8443
227.48785	8439
227.50908	8465
227.53032	8491
227.55156	8444
227.5728	8460
227.59402	8458
227.61526	8489
227.63651	8526
227.65775	8504
227.67897	8449
227.70021	8397
227.72144	8314
227.74268	8317
227.76392	8312
227.78514	8316
227.80638	8265
227.82761	8385
227.84885	8354
227.87007	8417
227.89131	8352
227.91254	8373
227.93378	8389
227.955	8407
227.97624	8379
227.99747	8408
228.01871	8397
228.03993	8397
228.06117	8400
228.0824	8383
228.10362	8326
228.12486	8255
228.14609	8313
228.16731	8364
228.18855	8374
228.20978	8348
228.231	8435
228.25223	8402
228.27347	8428
228.29469	8424
228.31592	8450
228.33714	8488
228.35837	8502
228.37959	8442
228.40083	8424
228.42206	8385
228.44328	8439
228.46451	8431
228.48573	8451
228.50696	8486
228.52818	8535
228.54941	8487
228.57063	8547
228.59186	8425
228.61308	8368
228.63431	8402
228.65553	8419
228.67676	8503
228.69798	8476
228.71921	8461
228.74043	8484
228.76166	8467
228.78287	8543
228.80409	8579
228.82532	8596
228.84654	8511
228.86777	8520
228.88899	8627
228.9102	8622
228.93143	8548
228.95265	8531
228.97388	8475
228.99509	8547
229.01631	8621
229.03754	8645
229.05875	8645
229.07997	8649
229.1012	8614
229.12241	8646
229.14363	8726
229.16484	8716
229.18607	8767
229.20728	8774
229.2285	8751
229.24973	8764
229.27094	8697
229.29216	8782
229.31337	8755
229.33458	8770
229.3558	8797
229.37701	8791
229.39824	8741
229.41945	8685
229.44067	8687
229.46188	8674
229.48309	8592
229.50432	8594
229.52553	8611
229.54674	8531
229.56795	8516
229.58917	8485
229.61038	8439
229.63159	8434
229.6528	8399
229.67403	8385
229.69524	8387
229.71645	8349
229.73766	8273
229.75887	8263
229.78008	8219
229.8013	8167
229.82251	8088
229.84372	8045
229.86493	8026
229.88614	7940
229.90735	7865
229.92856	7773
229.94977	7769
229.97098	7735
229.99219	7659
230.0134	7664
230.03461	7596
230.05582	7493
230.07703	7490
230.09824	7383
230.11943	7420
230.14064	7396
230.16185	7414
230.18306	7375
230.20427	7346
230.22548	7286
230.24667	7197
230.26788	7166
230.28909	7107
230.3103	7078
230.3315	7096
230.35271	6988
230.37392	6984
230.39511	6906
230.41632	6923
230.43753	6893
230.45872	6895
230.47993	6929
230.50114	6893
230.52234	6900
230.54355	6876
230.56474	6830
230.58595	6825
230.60715	6820
230.62836	6758
230.64955	6863
230.67076	6816
230.69196	6776
230.71317	6806
230.73436	6832
230.75557	6736
230.77676	6718
230.79796	6773
230.81917	6725
230.84036	6659
230.86156	6618
230.88277	6646
230.90396	6611
230.92516	6567
230.94637	6463
230.96756	6447
230.98875	6447
231.00995	6480
231.03114	6467
231.05235	6510
231.07355	6444
231.09474	6401
231.11594	6459
231.13713	6462
231.15833	6441
231.17952	6381
231.20071	6441
231.22192	6468
231.24312	6435
231.26431	6412
231.28551	6368
231.3067	6444
231.3279	6413
231.34909	6319
231.37027	6327
231.39146	6357
231.41266	6338
231.43385	6330
231.45505	6318
231.47624	6347
231.49744	6273
231.51863	6288
231.53983	6254
231.561	6219
231.5822	6190
231.60339	6209
231.62459	6261
231.64577	6212
231.66696	6165
231.68816	6124
231.70935	6109
231.73053	6092
231.75172	6082
231.77292	6130
231.7941	6080
231.81529	6112
231.83647	6098
231.85767	6008
231.87886	6018
231.90004	6021
231.92123	6013
231.94241	6035
231.96361	5980
231.98479	6025
232.00598	5940
232.02716	5909
232.04834	5895
232.06953	5890
232.09071	5869
232.11191	5859
232.13309	5889
232.15427	5901
232.17546	5884
232.19664	5889
232.21782	5873
232.23901	5828
232.26019	5812
232.28137	5795
232.30257	5754
232.32375	5773
232.34492	5741
232.3661	5771
232.38728	5739
232.40848	5693
232.42966	5765
232.45084	5692
232.47202	5696
232.49319	5721
232.51437	5671
232.53555	5679
232.55673	5668
232.57791	5665
232.59909	5637
232.62027	5646
232.64145	5589
232.66263	5584
232.68381	5579
232.70499	5599
232.72617	5533
232.74734	5501
232.76852	5495
232.7897	5506
232.81088	5492
232.83205	5519
232.85323	5540
232.8744	5527
232.89558	5471
232.91676	5425
232.93793	5416
232.95911	5380
232.98029	5332
233.00146	5308
233.02263	5339
233.04381	5288
233.06499	5291
233.08615	5259
233.10733	5341
233.12851	5300
233.14967	5283
233.17085	5272
233.19202	5251
233.2132	5254
233.23438	5281
233.25554	5327
233.27672	5306
233.29788	5271
233.31906	5288
233.34023	5330
233.36139	5332
233.38257	5242
233.40373	5277
233.42491	5302
233.44608	5281
233.46724	5236
233.48842	5211
233.50958	5147
233.53075	5247
233.55193	5222
233.57309	5268
233.59425	5276
233.61542	5244
233.6366	5215
233.65776	5211
233.67892	5193
233.70009	5249
233.72127	5230
233.74243	5238
233.7636	5257
233.78476	5241
233.80592	5243
233.82709	5231
233.84825	5184
233.86942	5214
233.89058	5149
233.91174	5175
233.93291	5164
233.95407	5131
233.97523	5134
233.9964	5119
234.01756	5166
234.03873	5142
234.05989	5135
234.08105	5099
234.10222	5119
234.12338	5101
234.14453	5106
234.1657	5062
234.18686	5077
234.20802	5106
234.22919	5095
234.25034	5142
234.2715	5113
234.29266	5137
234.31383	5083
234.33498	5053
234.35614	5000
234.3773	5005
234.39845	4976
234.41962	4983
234.44078	5015
234.46193	4957
234.48309	4978
234.50424	4974
234.52541	4963
234.54655	4995
234.56772	4994
234.58887	4952
234.61003	4943
234.63118	4916
234.65234	4940
234.67349	4910
234.69466	4935
234.71581	4903
234.73695	4893
234.75812	4848
234.77927	4870
234.80043	4875
234.82158	4861
234.84273	4853
234.86388	4864
234.88504	4867
234.90619	4869
234.92734	4846
234.94849	4879
234.96965	4829
234.9908	4814
235.01195	4795
235.0331	4802
235.05424	4826
235.07539	4791
235.09656	4785
235.11771	4830
235.13885	4810
235.16	4758
235.18115	4831
235.2023	4811
235.22345	4774
235.2446	4760
235.26575	4753
235.2869	4740
235.30804	4721
235.32919	4693
235.35034	4677
235.37148	4674
235.39262	4655
235.41377	4677
235.43492	4641
235.45607	4663
235.47722	4689
235.49835	4639
235.5195	4612
235.54065	4647
235.5618	4662
235.58293	4628
235.60408	4654
235.62523	4676
235.64638	4643
235.66751	4634
235.68866	4602
235.70981	4589
235.73094	4628
235.75209	4536
235.77322	4461
