Date and Time:                Mon Oct 10 12:47:56.000 2022
Software Version:             4.31.30023.0
Temperature (C):              -40
Model:                        DU940P_BU2
Data Type:                    Counts
Acquisition Mode:             Single Scan
Trigger Mode:                 Internal
Exposure Time (secs):         4.2
Readout Mode:                 Full Vertical Binning
Horizontal binning:           1
Extended Dynamic Range:       off
Horizontally flipped:         false
Vertical Shift Speed (usecs): 14.51
Pixel Readout Rate (MHz):     3
Baseline Clamp:               ON
Clock Amplitude:              Normal
Output Amplifier:             High Capacity
Serial Number:                23634
Pre-Amplifier Gain:           1.000000
Spurious Noise Filter Mode:   No Filter
Photon counted:               false
Data Averaging Filter Mode:   No Filter
SR500i:
Serial Number:                
Wavelength (nm):              214
Grating Groove Density (l/mm):1199.47
Grating Blaze:                500
Output Flipper Port:          Direct
Accessory Output Port 1:      Off
Accessory Output Port 2:      Off
Accessory Output Port 3:      Off
Accessory Input Port:         On



192.0349	13410
192.05646	12984
192.078	12753
192.09956	12014
192.12112	11514
192.14268	11841
192.16425	11432
192.18581	9465
192.20735	8332
192.22891	8152
192.25047	8301
192.27203	8596
192.29358	8219
192.31514	9289
192.3367	10028
192.35826	8915
192.37981	8661
192.40137	10117
192.42293	10605
192.44449	9691
192.46603	8555
192.48759	9677
192.50916	11508
192.5307	12084
192.55226	11291
192.57381	9373
192.59537	9122
192.61693	10914
192.63847	12315
192.66003	12807
192.68159	12385
192.70314	10691
192.7247	9364
192.74625	10800
192.76781	12643
192.78935	13335
192.81091	13341
192.83246	12956
192.85402	11824
192.87556	10299
192.89713	10821
192.91867	12750
192.94023	13628
192.96178	13823
192.98334	13958
193.00488	13723
193.02643	13054
193.04799	11496
193.06953	11231
193.09109	12744
193.11264	13878
193.13419	14122
193.15575	14232
193.17729	14335
193.19884	14272
193.2204	13903
193.24194	12923
193.26349	12237
193.28505	13146
193.30659	14008
193.32814	14300
193.34969	14494
193.37125	14519
193.39279	14578
193.41434	14467
193.43588	14371
193.45744	13693
193.47899	13124
193.50053	13398
193.52208	14120
193.54362	14544
193.56517	14617
193.58673	14621
193.60828	14672
193.62982	14704
193.65137	14711
193.67291	14510
193.69446	13861
193.716	13374
193.73755	13372
193.75909	13848
193.78064	14228
193.80219	13940
193.82375	14176
193.84529	14605
193.86684	14341
193.88838	14012
193.90993	14497
193.93147	14757
193.953	14603
193.97455	13916
193.99609	13747
194.01764	14446
194.03918	14754
194.06073	14936
194.08228	14864
194.10382	14330
194.12537	14532
194.14691	14985
194.16846	15029
194.18999	15036
194.21153	14973
194.23308	14730
194.25462	14293
194.27617	14534
194.29771	14934
194.31924	15143
194.34079	15171
194.36234	15170
194.38388	15002
194.40541	14796
194.42696	14659
194.4485	14930
194.47005	14703
194.49158	13700
194.51312	12021
194.53467	11822
194.5562	11587
194.57774	12627
194.59929	11875
194.62082	11854
194.64236	13636
194.66391	13156
194.68544	11538
194.70699	12846
194.72852	14355
194.75006	14192
194.77161	12360
194.79314	11857
194.81468	13619
194.83621	14689
194.85776	14676
194.87929	13391
194.90083	12158
194.92236	13138
194.94391	14636
194.96544	15070
194.98698	15055
195.00851	14312
195.03006	13051
195.05159	12982
195.07312	14390
195.09467	15212
195.1162	15373
195.13774	15287
195.15927	14909
195.1808	14055
195.20235	13558
195.22388	14341
195.24541	15281
195.26695	15451
195.28848	15512
195.31001	15525
195.33156	15447
195.35309	14968
195.37462	14485
195.39616	14606
195.41769	15419
195.43922	15668
195.46075	15710
195.48228	15748
195.50383	15787
195.52536	15650
195.54689	15494
195.56842	15127
195.58995	14964
195.6115	15551
195.63303	15960
195.65456	16075
195.67609	16074
195.69762	16034
195.71915	16095
195.74068	16068
195.76221	15873
195.78374	15727
195.80528	15554
195.82681	15470
195.84834	15721
195.86987	15708
195.8914	15691
195.91293	15890
195.93446	15721
195.95599	15845
195.97752	16048
195.99905	15873
196.02058	15564
196.0421	15741
196.06363	15974
196.08516	16146
196.10669	15983
196.12822	15917
196.14975	16171
196.17128	16281
196.19281	16247
196.21434	16232
196.23586	15958
196.25739	15996
196.27892	16193
196.30045	16278
196.32198	16348
196.34351	16449
196.36502	16375
196.38655	16229
196.40808	16377
196.42961	16484
196.45113	16514
196.47266	16536
196.49419	16518
196.5157	16441
196.53723	16440
196.55876	16392
196.58029	16510
196.60181	16590
196.62334	16572
196.64485	16686
196.66638	16693
196.68791	16634
196.70943	16783
196.73096	16769
196.75249	16805
196.774	16885
196.79553	16949
196.81705	16966
196.83858	17060
196.86009	16920
196.88162	16951
196.90314	16942
196.92467	16953
196.94618	16688
196.96771	16052
196.98923	15765
197.01076	15751
197.03227	15880
197.0538	16266
197.07532	15725
197.09683	16420
197.11836	16848
197.13988	16078
197.16141	15795
197.18292	16675
197.20444	17111
197.22597	16705
197.24748	16092
197.269	16565
197.29053	17226
197.31204	17485
197.33356	17189
197.35509	16607
197.3766	16485
197.39812	17007
197.41963	17485
197.44116	17474
197.46268	17394
197.48419	16886
197.50571	16785
197.52722	16825
197.54875	17357
197.57027	17499
197.59178	17480
197.6133	17449
197.63481	17195
197.65633	17000
197.67784	16959
197.69937	17270
197.72089	17462
197.7424	17576
197.76392	17736
197.78543	17727
197.80695	17578
197.82846	17454
197.84998	17242
197.87149	17244
197.89301	17562
197.91452	17502
197.93604	17579
197.95755	17487
197.97906	17480
198.00058	17526
198.02209	17430
198.04361	17525
198.06512	17350
198.08664	17523
198.10814	17556
198.12965	17490
198.15117	17545
198.17268	17615
198.1942	17802
198.21571	17901
198.23723	17822
198.25873	17941
198.28024	18159
198.30176	18444
198.32327	18705
198.34479	18856
198.36629	18987
198.3878	19001
198.40932	18796
198.43083	18561
198.45233	18539
198.47385	18467
198.49536	18480
198.51686	18354
198.53838	18314
198.55989	18379
198.58139	18475
198.60291	18401
198.62442	18372
198.64592	18381
198.66743	18419
198.68895	18319
198.71045	18341
198.73196	18533
198.75346	18454
198.77498	18381
198.79648	18436
198.81799	18426
198.83949	18502
198.86101	18634
198.88251	18634
198.90402	18669
198.92552	18700
198.94704	18675
198.96854	18589
198.99005	18610
199.01155	18566
199.03307	18547
199.05457	18572
199.07607	18576
199.09758	18577
199.11908	18508
199.14059	18606
199.16209	18618
199.18359	18707
199.20511	18691
199.22661	18803
199.24811	18857
199.26961	18778
199.29112	18846
199.31262	18828
199.33412	18859
199.35564	18782
199.37714	18748
199.39864	18774
199.42014	18828
199.44164	18846
199.46315	18950
199.48465	18979
199.50615	18905
199.52765	18936
199.54915	18910
199.57065	18915
199.59216	18756
199.61366	18741
199.63516	18687
199.65666	18827
199.67816	18863
199.69966	18649
199.72116	18824
199.74266	18960
199.76416	18891
199.78566	18846
199.80716	18977
199.82866	19124
199.85016	18998
199.87166	18889
199.89316	18851
199.91466	19124
199.93616	19254
199.95766	19166
199.97916	19103
200.00066	19154
200.02216	19225
200.04366	19337
200.06516	19362
200.08664	19323
200.10814	19267
200.12964	19173
200.15114	19212
200.17264	19360
200.19414	19352
200.21562	19334
200.23712	19259
200.25862	19161
200.28012	19162
200.30161	19167
200.3231	19255
200.3446	19345
200.3661	19386
200.38759	19276
200.40909	19386
200.43059	19421
200.45207	19302
200.47357	19372
200.49507	19432
200.51656	19492
200.53806	19540
200.55956	19496
200.58104	19581
200.60254	19566
200.62402	19508
200.64552	19487
200.66702	19511
200.68851	19590
200.71001	19607
200.73149	19663
200.75299	19766
200.77448	19596
200.79597	19618
200.81746	19534
200.83896	19601
200.86044	19680
200.88194	19630
200.90343	19618
200.92491	19746
200.94641	19830
200.9679	19904
200.9894	19791
201.01088	19793
201.03236	19847
201.05386	19909
201.07535	19965
201.09683	20107
201.11833	20177
201.13982	20171
201.1613	20204
201.1828	20297
201.20428	20456
201.22577	20582
201.24725	20547
201.26875	20635
201.29024	20660
201.31172	20573
201.33321	20607
201.35469	20562
201.37619	20564
201.39767	20625
201.41916	20610
201.44064	20677
201.46213	20784
201.48361	20875
201.50511	20761
201.5266	20743
201.54808	20740
201.56956	20746
201.59105	20828
201.61253	20822
201.63402	21001
201.6555	21044
201.67699	21019
201.69847	20933
201.71996	20991
201.74144	21012
201.76292	21009
201.78441	21143
201.80589	21206
201.82738	21225
201.84886	21099
201.87035	21110
201.89183	21210
201.9133	21265
201.93478	21186
201.95627	21245
201.97775	21240
201.99924	21240
202.02072	21229
202.04221	21283
202.06367	21265
202.08516	21267
202.10664	21338
202.12813	21398
202.14961	21473
202.17108	21583
202.19257	21553
202.21405	21564
202.23553	21588
202.257	21541
202.27849	21491
202.29997	21430
202.32144	21376
202.34293	21350
202.36441	21282
202.38588	21324
202.40736	21381
202.42883	21331
202.45032	21255
202.4718	21306
202.49327	21279
202.51476	21245
202.53622	21286
202.55771	21332
202.57918	21437
202.60066	21421
202.62213	21505
202.64362	21519
202.66508	21609
202.68657	21613
202.70804	21515
202.72952	21604
202.75099	21693
202.77248	21627
202.79395	21664
202.81543	21660
202.8369	21618
202.85837	21683
202.87985	21640
202.90132	21823
202.92279	21973
202.94427	22043
202.96574	22038
202.98721	21934
203.0087	21962
203.03017	21957
203.05164	22083
203.0731	22172
203.09459	22302
203.11606	22326
203.13753	22353
203.159	22324
203.18048	22344
203.20195	22386
203.22342	22247
203.24489	22299
203.26636	22338
203.28783	22394
203.30931	22352
203.33078	22357
203.35225	22414
203.37372	22629
203.39519	22745
203.41666	22709
203.43813	22942
203.45959	22984
203.48106	22928
203.50253	22999
203.524	22880
203.54547	22947
203.56694	22871
203.58841	22891
203.60988	22823
203.63135	22955
203.65282	22777
203.67429	22804
203.69576	22730
203.71722	22655
203.73869	22650
203.76016	22630
203.78163	22560
203.80309	22533
203.82455	22364
203.84602	22406
203.86749	22453
203.88896	22483
203.91043	22501
203.93188	22444
203.95335	22464
203.97482	22423
203.99629	22355
204.01775	22449
204.03922	22497
204.06068	22559
204.08215	22524
204.10361	22580
204.12508	22687
204.14655	22617
204.168	22508
204.18947	22499
204.21094	22538
204.23239	22626
204.25386	22636
204.27531	22602
204.29678	22498
204.31825	22428
204.33971	22513
204.36118	22634
204.38263	22640
204.4041	22771
204.42555	22748
204.44702	22645
204.46848	22768
204.48994	22695
204.5114	22812
204.53287	22843
204.55432	22939
204.57579	22983
204.59724	22912
204.6187	22978
204.64017	22991
204.66162	23012
204.68309	23048
204.70454	23137
204.726	23078
204.74747	23133
204.76892	23144
204.79037	23227
204.81184	23347
204.8333	23265
204.85475	23197
204.87621	23242
204.89767	23282
204.91913	23252
204.94058	23356
204.96204	23455
204.98351	23482
205.00496	23552
205.02641	23565
205.04787	23642
205.06932	23776
205.09077	23696
205.11224	23784
205.1337	23898
205.15515	23848
205.17661	23899
205.19806	23895
205.21951	23915
205.24097	24084
205.26242	24102
205.28387	24048
205.30533	24155
205.32678	24142
205.34824	24097
205.36969	24100
205.39114	23972
205.4126	23978
205.43405	24019
205.45551	24141
205.47696	24169
205.49841	24173
205.51987	24275
205.54132	24229
205.56277	24322
205.58421	24487
205.60567	24555
205.62712	24554
205.64857	24605
205.67003	24666
205.69148	24726
205.71292	24848
205.73438	24941
205.75583	25066
205.77728	25193
205.79872	25224
205.82018	25443
205.84163	25722
205.86308	25927
205.88452	26007
205.90598	26128
205.92743	26348
205.94887	26624
205.97032	26845
205.99178	27174
206.01321	27284
206.03467	27402
206.05611	27463
206.07756	27340
206.09901	27210
206.12045	27086
206.14191	26859
206.16335	26821
206.1848	26703
206.20624	26361
206.22769	26069
206.24913	26082
206.27058	25923
206.29202	25882
206.31348	25841
206.33492	25850
206.35637	25740
206.37781	25736
206.39925	25662
206.4207	25618
206.44214	25742
206.46359	25607
206.48503	25632
206.50647	25694
206.52792	25750
206.54936	25768
206.5708	25772
206.59224	25712
206.61369	25662
206.63513	25547
206.65657	25534
206.67802	25352
206.69946	25256
206.7209	25243
206.74234	25249
206.76378	25237
206.78523	25248
206.80667	25190
206.82811	25170
206.84955	24963
206.87099	25040
206.89243	25033
206.91386	25114
206.93532	25183
206.95676	25327
206.9782	25364
206.99963	25275
207.02107	25271
207.04251	25418
207.06395	25379
207.08539	25394
207.10683	25372
207.12827	25275
207.1497	25328
207.17114	25303
207.19258	25315
207.21402	25315
207.23546	25305
207.2569	25335
207.27832	25454
207.29976	25640
207.3212	25616
207.34264	25511
207.36407	25490
207.38551	25478
207.40695	25497
207.42838	25605
207.44981	25795
207.47125	25881
207.49269	25938
207.51413	25886
207.53555	25841
207.55699	25806
207.57843	25844
207.59985	25878
207.62129	26051
207.64273	26121
207.66417	25945
207.68559	25960
207.70703	26060
207.72845	26058
207.74989	26023
207.77133	25926
207.79276	25920
207.81419	25946
207.83562	25995
207.85706	25951
207.87849	25864
207.89992	25874
207.92136	25842
207.94278	25930
207.96422	26045
207.98564	26031
208.00708	26130
208.0285	26112
208.04994	26122
208.07137	26031
208.09279	25955
208.11423	26037
208.13565	26087
208.15709	26027
208.17851	26089
208.19994	26079
208.22137	26132
208.2428	26119
208.26422	26204
208.28566	26166
208.30708	26111
208.32851	26134
208.34995	26091
208.37137	26191
208.39279	26309
208.41422	26420
208.43565	26390
208.45708	26397
208.4785	26377
208.49992	26375
208.52135	26334
208.54279	26346
208.56421	26304
208.58563	26331
208.60706	26352
208.62848	26321
208.6499	26295
208.67133	26233
208.69275	26165
208.71417	26269
208.7356	26502
208.75703	26546
208.77846	26535
208.79988	26465
208.8213	26392
208.84273	26329
208.86415	26436
208.88556	26542
208.90698	26652
208.92841	26794
208.94983	26850
208.97125	26735
208.99268	26796
209.0141	26810
209.03552	26801
209.05695	26742
209.07837	26814
209.09978	26716
209.1212	26755
209.14262	26608
209.16405	26591
209.18547	26691
209.20688	26695
209.2283	26558
209.24973	26490
209.27115	26456
209.29256	26481
209.31398	26503
209.3354	26635
209.35683	26623
209.37823	26629
209.39966	26793
209.42108	26909
209.44249	26949
209.46391	26878
209.48532	26846
209.50674	26757
209.52817	26848
209.54958	26715
209.571	26796
209.59241	26802
209.61383	26783
209.63524	26546
209.65666	26547
209.67807	26748
209.69949	26795
209.7209	26877
209.74232	26907
209.76373	26809
209.78516	26759
209.80656	26747
209.82797	26672
209.8494	26775
209.8708	26858
209.89223	26861
209.91364	26957
209.93504	27024
209.95647	27027
209.97787	26939
209.99928	26979
210.02071	27037
210.04211	27087
210.06352	27093
210.08493	27163
210.10635	27051
210.12776	27077
210.14917	27055
210.17058	27079
210.19199	27257
210.21341	27436
210.23482	27410
210.25623	27419
210.27763	27440
210.29904	27455
210.32045	27450
210.34186	27372
210.36327	27530
210.38469	27531
210.4061	27623
210.42751	27582
210.44891	27649
210.47032	27714
210.49173	27797
210.51314	27808
210.53455	27887
210.55595	27862
210.57736	27852
210.59877	27821
210.62018	27887
210.64157	27897
210.66298	27883
210.68439	27875
210.7058	27823
210.7272	27853
210.74861	27839
210.77002	28023
210.79143	28163
210.81282	28084
210.83423	28155
210.85564	28306
210.87704	28288
210.89844	28345
210.91985	28413
210.94125	28475
210.96266	28495
210.98405	28572
211.00546	28429
211.02687	28495
211.04826	28523
211.06967	28582
211.09108	28489
211.11247	28658
211.13388	28798
211.15529	28657
211.17668	28658
211.19809	28390
211.21948	28243
211.24089	28129
211.2623	28152
211.28369	28109
211.3051	28208
211.32649	28191
211.3479	27971
211.36929	28014
211.3907	27985
211.41209	28099
211.43349	28074
211.4549	28087
211.47629	28134
211.4977	28126
211.51909	28066
211.54048	28012
211.56189	28122
211.58328	28163
211.60469	28122
211.62608	28160
211.64748	28364
211.66887	28653
211.69028	28512
211.71167	28474
211.73306	28459
211.75447	28385
211.77586	28447
211.79726	28516
211.81865	28603
211.84004	28726
211.86145	28679
211.88284	28657
211.90424	28585
211.92563	28562
211.94702	28606
211.96841	28640
211.98981	28696
212.01122	28685
212.03261	28646
212.054	28556
212.07539	28667
212.09679	28647
212.11818	28713
212.13957	28730
212.16096	28812
212.18236	28638
212.20375	28569
212.22514	28554
212.24654	28388
212.26793	28465
212.28932	28496
212.3107	28493
212.33209	28528
212.35349	28634
212.37488	28625
212.39627	28644
212.41766	28611
212.43906	28591
212.46043	28406
212.48183	28487
212.50322	28463
212.52461	28429
212.54601	28458
212.56738	28575
212.58878	28718
212.61017	28778
212.63156	28777
212.65294	28764
212.67433	28810
212.69572	28783
212.7171	28899
212.73849	29015
212.75989	29194
212.78127	29432
212.80266	29505
212.82404	29478
212.84543	29357
212.86681	29395
212.8882	29457
212.90959	29454
212.93097	29525
212.95236	29519
212.97374	29455
212.99513	29485
213.01651	29449
213.0379	29457
213.05928	29374
213.08066	29393
213.10205	29545
213.12343	29771
213.14482	29703
213.1662	29621
213.18758	29498
213.20897	29415
213.23035	29320
213.25172	29601
213.27312	29720
213.29449	29831
213.31587	29813
213.33727	29781
213.35864	29774
213.38002	29838
213.4014	29864
213.42279	29875
213.44417	29808
213.46555	29843
213.48692	29668
213.5083	29469
213.52969	29371
213.55107	29401
213.57245	29386
213.59383	29394
213.6152	29400
213.63658	29512
213.65796	29409
213.67934	29425
213.70071	29442
213.72209	29550
213.74347	29602
213.76485	29799
213.78622	29925
213.8076	29938
213.82898	29935
213.85036	30130
213.87173	30242
213.89311	30084
213.91449	29868
213.93587	29895
213.95724	29896
213.97862	29817
214	29788
214.02138	29957
214.04274	30068
214.06412	30298
214.08549	30182
214.10687	30218
214.12825	30169
214.14961	30273
214.17099	30262
214.19237	30357
214.21375	30508
214.23511	30498
214.25648	30515
214.27786	30497
214.29922	30546
214.3206	30524
214.34198	30437
214.36334	30458
214.38472	30427
214.4061	30368
214.42746	30402
214.44884	30406
214.4702	30301
214.49158	30210
214.51294	30328
214.53432	30487
214.55568	30518
214.57706	30530
214.59842	30545
214.6198	30552
214.64116	30458
214.66254	30438
214.6839	30456
214.70528	30570
214.72664	30722
214.74802	30737
214.76938	30713
214.79074	30663
214.81212	30610
214.83348	30735
214.85484	30666
214.87622	30688
214.89758	30727
214.91895	30742
214.94031	30668
214.96169	30655
214.98305	30717
215.00441	30665
215.02577	30510
215.04715	30563
215.06851	30628
215.08987	30766
215.11124	30724
215.1326	30724
215.15396	30686
215.17534	30736
215.1967	30876
215.21806	31007
215.23943	30987
215.26079	30980
215.28215	30940
215.30351	30910
215.32487	30897
215.34624	30722
215.3676	30872
215.38896	30877
215.41032	30864
215.43169	30738
215.45305	30605
215.47441	30695
215.49577	30710
215.51714	30600
215.5385	30616
215.55986	30600
215.58121	30543
215.60257	30423
215.62393	30306
215.64529	30202
215.66666	30183
215.68802	30303
215.70937	30232
215.73073	30341
215.75209	30465
215.77345	30361
215.7948	30269
215.81616	30365
215.83752	30279
215.85889	30238
215.88023	30209
215.9016	30308
215.92296	30408
215.94431	30256
215.96567	30331
215.98701	30378
216.00838	30546
216.02974	30515
216.05109	30556
216.07245	30482
216.0938	30493
216.11516	30378
216.13651	30311
216.15787	30331
216.17921	30425
216.20058	30569
216.22192	30511
216.24329	30609
216.26463	30644
216.286	30767
216.30734	30710
216.32869	30766
216.35005	30712
216.3714	30601
216.39275	30647
216.41411	30710
216.43546	30906
216.4568	30917
216.47816	30775
216.49951	30718
216.52086	30659
216.54222	30603
216.56357	30622
216.58492	30676
216.60626	30859
216.62761	30758
216.64897	30801
216.67032	30789
216.69167	30854
216.71301	30809
216.73436	31022
216.75571	30934
216.77705	31077
216.79842	30997
216.81976	30922
216.84111	30901
216.86246	30872
216.8838	30860
216.90515	30893
216.9265	30945
216.94785	31145
216.96919	31170
216.99054	30983
217.01189	30948
217.03323	30834
217.05458	30854
217.07591	30755
217.09726	30795
217.11861	30882
217.13995	30917
217.1613	30902
217.18265	30880
217.20399	30996
217.22533	31109
217.24667	31035
217.26802	31055
217.28937	31180
217.31071	31103
217.33205	31113
217.35339	30958
217.37474	31018
217.39609	31065
217.41742	30933
217.43877	31169
217.46011	31346
217.48145	31490
217.50279	31420
217.52412	31277
217.54547	31270
217.56682	31215
217.58815	31374
217.6095	31374
217.63083	31515
217.65218	31605
217.67351	31515
217.69485	31458
217.71619	31477
217.73753	31538
217.75887	31564
217.78021	31612
217.80154	31632
217.82289	31797
217.84422	31879
217.86557	31586
217.8869	31430
217.90823	31326
217.92958	31229
217.95091	31341
217.97224	31671
217.99359	31589
218.01492	31305
218.03625	31280
218.05759	31637
218.07893	31867
218.10027	31694
218.1216	31865
218.14293	31650
218.16428	31374
218.18561	31484
218.20694	31553
218.22827	31344
218.2496	31195
218.27094	31132
218.29228	31037
218.31361	30869
218.33495	30869
218.35628	30844
218.37761	31104
218.39894	31063
218.42027	30957
218.4416	30843
218.46294	30902
218.48427	30830
218.5056	30756
218.52693	30875
218.54826	31132
218.5696	31571
218.59093	31969
218.61226	31827
218.63359	31361
218.65492	31250
218.67624	31257
218.69757	31237
218.7189	31329
218.74023	31380
218.76157	31480
218.7829	31522
218.80421	31951
218.82555	31572
218.84688	31185
218.86821	30949
218.88953	31073
218.91086	31317
218.93219	31501
218.95351	31426
218.97484	31387
218.99617	31148
219.01749	31317
219.03882	31445
219.06015	31580
219.08147	31702
219.1028	31822
219.12411	31751
219.14545	31747
219.16678	31781
219.1881	31756
219.20943	31762
219.23074	31845
219.25208	31735
219.27339	31831
219.29472	31693
219.31604	31635
219.33736	31583
219.35869	31571
219.38	31509
219.40134	31474
219.42265	31520
219.44397	31594
219.4653	31516
219.48662	31591
219.50793	31612
219.52927	31628
219.55058	31647
219.5719	31797
219.59323	31872
219.61455	31769
219.63586	31777
219.65718	31772
219.6785	31569
219.69983	31646
219.72115	31450
219.74246	31525
219.76378	31521
219.7851	31320
219.80641	31371
219.82773	31483
219.84906	31556
219.87038	31553
219.89169	31612
219.91301	31629
219.93433	31524
219.95564	31438
219.97696	31392
219.99828	31420
220.01959	31487
220.04091	31604
220.06223	31632
220.08354	31774
220.10486	31768
220.12617	31825
220.14748	31626
220.16879	31789
220.19011	31895
220.21143	31845
220.23274	31940
220.25406	32017
220.27536	31919
220.29668	32100
220.31799	32049
220.33931	32423
220.36063	32672
220.38193	32821
220.40324	33036
220.42456	33283
220.44586	33332
220.46718	33419
220.48849	33477
220.5098	33468
220.53111	33399
220.55243	33385
220.57373	33384
220.59505	33249
220.61636	33089
220.63766	33147
220.65898	33008
220.68028	33002
220.7016	33007
220.7229	32824
220.74422	32710
220.76552	32790
220.78683	32622
220.80814	32763
220.82945	32439
220.85075	32251
220.87206	32185
220.89337	32261
220.91467	32278
220.93599	32266
220.95729	32186
220.97859	32160
220.99991	32218
221.02121	32135
221.04251	32241
221.06381	32016
221.08513	31981
221.10643	32155
221.12773	32035
221.14903	31985
221.17035	31957
221.19165	31994
221.21295	32050
221.23425	31894
221.25555	31958
221.27686	31893
221.29817	32001
221.31947	31907
221.34077	31892
221.36208	31764
221.38338	31906
221.40468	31668
221.42598	31503
221.44728	31298
221.46858	31254
221.48988	31231
221.51118	31336
221.53249	31468
221.55379	31480
221.57509	31322
221.59639	31250
221.61769	31178
221.63899	31024
221.66028	31127
221.68158	31294
221.70288	31370
221.72418	31267
221.74548	31315
221.76678	31221
221.78807	31363
221.80937	31366
221.83067	31586
221.85197	31450
221.87326	31499
221.89456	31372
221.91586	31302
221.93716	31122
221.95845	31098
221.97975	31134
222.00105	31209
222.02234	31271
222.04364	31242
222.06493	31409
222.08623	31500
222.10753	31517
222.12881	31501
222.15012	31536
222.1714	31472
222.1927	31569
222.21399	31645
222.23529	31650
222.25658	31708
222.27788	31501
222.29916	31526
222.32045	31577
222.34175	31471
222.36304	31495
222.38434	31732
222.40562	31698
222.42691	31638
222.44821	31528
222.4695	31647
222.49078	31597
222.51208	31595
222.53337	31811
222.55466	31681
222.57594	31861
222.59724	31778
222.61853	31763
222.63982	31646
222.6611	31723
222.68239	31800
222.70369	31827
222.72498	31945
222.74626	32123
222.76755	32038
222.78883	31837
222.81012	31573
222.83141	31620
222.85269	31554
222.87398	31542
222.89526	31586
222.91656	31542
222.93785	31601
222.95914	31571
222.98041	31664
223.00169	31771
223.02298	31719
223.04427	31710
223.06555	31742
223.08684	31774
223.10812	31705
223.12941	31651
223.1507	31696
223.17198	31448
223.19325	31501
223.21454	31318
223.23582	31562
223.25711	31701
223.2784	31831
223.29967	31617
223.32095	31577
223.34224	31351
223.36353	31258
223.3848	31363
223.40608	31329
223.42737	31563
223.44864	31752
223.46992	31679
223.4912	31590
223.51248	31642
223.53377	31618
223.55504	31632
223.57632	31608
223.5976	31692
223.61888	31662
223.64015	31674
223.66144	31710
223.68271	31686
223.70399	31735
223.72527	31664
223.74655	31694
223.76782	31598
223.78911	31542
223.81038	31376
223.83165	31414
223.85294	31528
223.87421	31555
223.89549	31762
223.91676	31738
223.93803	31905
223.9593	31642
223.98059	31826
224.00186	31848
224.02313	31793
224.04442	31830
224.06569	31690
224.08696	31709
224.10823	31638
224.1295	31517
224.15077	31464
224.17206	31644
224.19333	31606
224.2146	31535
224.23587	31536
224.25714	31625
224.27841	31551
224.29968	31479
224.32095	31522
224.34222	31658
224.36349	31970
224.38477	31937
224.40604	31863
224.42731	31825
224.44858	31718
224.46985	31747
224.49112	31661
224.51239	31757
224.53366	31796
224.55493	31950
224.5762	32080
224.59747	31959
224.61873	31940
224.64	31764
224.66127	31858
224.68254	31938
224.70381	32234
224.72507	32238
224.74634	32168
224.76761	32173
224.78888	32111
224.81013	32134
224.83141	32198
224.85268	32335
224.87393	32500
224.8952	32570
224.91647	32425
224.93773	32483
224.959	32506
224.98026	32527
225.00153	32506
225.02278	32548
225.04405	32471
225.06532	32303
225.08658	32297
225.10785	32285
225.1291	32297
225.15036	32235
225.17163	31929
225.19289	32134
225.21416	32046
225.23541	32219
225.25668	32190
225.27794	32274
225.29919	32271
225.32047	32216
225.34172	32383
225.36298	32703
225.38425	32640
225.4055	32694
225.42676	32653
225.44801	32717
225.46928	32701
225.49054	32542
225.5118	32580
225.53305	32697
225.55431	32598
225.57558	32374
225.59683	32335
225.61809	32378
225.63934	32465
225.6606	32536
225.68185	32404
225.70311	32461
225.72437	32487
225.74562	32478
225.76688	32184
225.78813	32397
225.80939	32486
225.83064	32490
225.8519	32568
225.87315	32518
225.89441	32511
225.91566	32358
225.93692	32466
225.95818	32392
225.97943	32369
226.00069	32570
226.02194	32585
226.04318	32565
226.06444	32529
226.08569	32486
226.10695	32511
226.1282	32798
226.14944	32613
226.1707	32618
226.19196	32670
226.21321	32564
226.23445	32481
226.25571	32553
226.27696	32511
226.2982	32707
226.31946	32809
226.34071	32851
226.36195	32885
226.38321	32880
226.40445	32981
226.4257	32918
226.44695	32966
226.4682	33004
226.48946	32903
226.5107	32994
226.53195	32885
226.55319	33060
226.57443	33207
226.59569	32984
226.61693	33027
226.63818	32950
226.65942	32896
226.68066	33003
226.70192	33073
226.72316	33166
226.74442	33118
226.76566	33160
226.7869	33157
226.80814	33381
226.82939	33357
226.85063	33305
226.87187	33221
226.89311	33290
226.91437	33267
226.93561	33080
226.95685	33157
226.97809	33006
226.99933	33164
227.02058	32986
227.04182	33130
227.06306	33237
227.0843	33197
227.10555	33482
227.12679	33291
227.14803	33330
227.16927	33185
227.19051	33081
227.21175	32947
227.23299	33117
227.25423	32982
227.27547	33017
227.29671	33121
227.31795	33171
227.33919	33219
227.36043	33213
227.38167	33345
227.40289	33452
227.42413	33227
227.44537	33342
227.46661	33290
227.48785	33646
227.50908	33568
227.53032	33656
227.55156	33458
227.5728	33624
227.59402	33763
227.61526	33951
227.63651	33976
227.65775	33934
227.67897	33904
227.70021	33723
227.72144	33584
227.74268	33724
227.76392	33555
227.78514	33761
227.80638	33624
227.82761	33947
227.84885	34085
227.87007	33928
227.89131	34097
227.91254	34139
227.93378	34358
227.955	34326
227.97624	34291
227.99747	34330
228.01871	34575
228.03993	34382
228.06117	34531
228.0824	34664
228.10362	34490
228.12486	34465
228.14609	34513
228.16731	34562
228.18855	34795
228.20978	34639
228.231	34938
228.25223	34851
228.27347	35025
228.29469	35099
228.31592	35279
228.33714	35180
228.35837	35390
228.37959	35326
228.40083	35469
228.42206	35427
228.44328	35488
228.46451	35578
228.48573	35590
228.50696	35927
228.52818	35954
228.54941	35923
228.57063	35848
228.59186	35886
228.61308	35641
228.63431	35862
228.65553	36088
228.67676	36108
228.69798	36394
228.71921	36430
228.74043	36647
228.76166	36488
228.78287	36767
228.80409	36663
228.82532	36826
228.84654	36951
228.86777	36954
228.88899	37013
228.9102	37256
228.93143	37214
228.95265	36869
228.97388	37133
228.99509	37104
229.01631	37278
229.03754	37564
229.05875	37792
229.07997	37621
229.1012	37775
229.12241	37918
229.14363	37922
229.16484	38211
229.18607	38103
229.20728	38706
229.2285	38601
229.24973	38641
229.27094	38616
229.29216	38694
229.31337	38762
229.33458	38704
229.3558	38870
229.37701	38790
229.39824	38902
229.41945	38871
229.44067	38698
229.46188	38762
229.48309	38937
229.50432	38588
229.52553	38648
229.54674	38697
229.56795	38589
229.58917	38494
229.61038	38464
229.63159	38602
229.6528	38302
229.67403	38513
229.69524	38449
229.71645	38495
229.73766	38177
229.75887	38364
229.78008	38024
229.8013	38198
229.82251	37908
229.84372	37633
229.86493	37543
229.88614	37540
229.90735	37224
229.92856	37138
229.94977	36900
229.97098	37073
229.99219	36853
230.0134	36643
230.03461	36574
230.05582	36355
230.07703	36344
230.09824	36133
230.11943	36217
230.14064	36148
230.16185	36183
230.18306	36184
230.20427	36102
230.22548	35854
230.24667	35649
230.26788	35603
230.28909	35611
230.3103	35329
230.3315	35553
230.35271	35460
230.37392	35256
230.39511	35298
230.41632	35117
230.43753	34901
230.45872	35188
230.47993	35264
230.50114	35368
230.52234	35277
230.54355	35165
230.56474	35202
230.58595	35080
230.60715	34963
230.62836	35220
230.64955	35278
230.67076	35285
230.69196	35338
230.71317	35150
230.73436	35378
230.75557	35392
230.77676	35349
230.79796	35254
230.81917	35260
230.84036	35154
230.86156	35091
230.88277	35147
230.90396	35086
230.92516	35002
230.94637	34821
230.96756	34868
230.98875	34689
231.00995	34914
231.03114	34806
231.05235	35036
231.07355	35031
231.09474	34861
231.11594	35004
231.13713	35177
231.15833	35115
231.17952	35017
231.20071	35200
231.22192	35274
231.24312	35279
231.26431	35249
231.28551	35254
231.3067	35391
231.3279	35336
231.34909	35190
231.37027	35276
231.39146	35223
231.41266	35341
231.43385	35321
231.45505	35593
231.47624	35418
231.49744	35366
231.51863	35368
231.53983	35335
231.561	35334
231.5822	35310
231.60339	35306
231.62459	35467
231.64577	35348
231.66696	35163
231.68816	35420
231.70935	35155
231.73053	35143
231.75172	35168
231.77292	35353
231.7941	35416
231.81529	35637
231.83647	35307
231.85767	35397
231.87886	35169
231.90004	35337
231.92123	35313
231.94241	35506
231.96361	35300
231.98479	35422
232.00598	35130
232.02716	35206
232.04834	35198
232.06953	34956
232.09071	35246
232.11191	35141
232.13309	35208
232.15427	35317
232.17546	35519
232.19664	35446
232.21782	35398
232.23901	35177
232.26019	35222
232.28137	35284
232.30257	35262
232.32375	35315
232.34492	35362
232.3661	35290
232.38728	35219
232.40848	35193
232.42966	35272
232.45084	35411
232.47202	35362
232.49319	35389
232.51437	35562
232.53555	35346
232.55673	35453
232.57791	35370
232.59909	35456
232.62027	35448
232.64145	35257
232.66263	35192
232.68381	35473
232.70499	35316
232.72617	35338
232.74734	35153
232.76852	35099
232.7897	35406
232.81088	35314
232.83205	35423
232.85323	35501
232.8744	35618
232.89558	35505
232.91676	35271
232.93793	35202
232.95911	35123
232.98029	34887
233.00146	34903
233.02263	34959
233.04381	35016
233.06499	34799
233.08615	35101
233.10733	35055
233.12851	35178
233.14967	34988
233.17085	35331
233.19202	34864
233.2132	35380
233.23438	35374
233.25554	35646
233.27672	35642
233.29788	35577
233.31906	35701
233.34023	35771
233.36139	35694
233.38257	35910
233.40373	35704
233.42491	35785
233.44608	35871
233.46724	35734
233.48842	35753
233.50958	35880
233.53075	35900
233.55193	35943
233.57309	36019
233.59425	36214
233.61542	36174
233.6366	36177
233.65776	36138
233.67892	36265
233.70009	36272
233.72127	36606
233.74243	36695
233.7636	36615
233.78476	36652
233.80592	36778
233.82709	36782
233.84825	36693
233.86942	36699
233.89058	36826
233.91174	36904
233.93291	36682
233.95407	36862
233.97523	36631
233.9964	36745
234.01756	36977
234.03873	36930
234.05989	36795
234.08105	37137
234.10222	36877
234.12338	37022
234.14453	36931
234.1657	36738
234.18686	36911
234.20802	37208
234.22919	37230
234.25034	37558
234.2715	37253
234.29266	37711
234.31383	37622
234.33498	37157
234.35614	37299
234.3773	37142
234.39845	37191
234.41962	37252
234.44078	37439
234.46193	37378
234.48309	37217
234.50424	37185
234.52541	37401
234.54655	37653
234.56772	37640
234.58887	37309
234.61003	37469
234.63118	37423
234.65234	37526
234.67349	37645
234.69466	37520
234.71581	37423
234.73695	37551
234.75812	37640
234.77927	37459
234.80043	37634
234.82158	37663
234.84273	37513
234.86388	37798
234.88504	37604
234.90619	37945
234.92734	37830
234.94849	38210
234.96965	37964
234.9908	38018
235.01195	37978
235.0331	37973
235.05424	38118
235.07539	37958
235.09656	38284
235.11771	38043
235.13885	38376
235.16	38320
235.18115	38309
235.2023	38293
235.22345	38438
235.2446	38228
235.26575	38435
235.2869	38214
235.30804	38315
235.32919	38299
235.35034	38266
235.37148	38249
235.39262	38381
235.41377	38318
235.43492	38640
235.45607	38422
235.47722	38590
235.49835	38770
235.5195	38385
235.54065	38806
235.5618	38453
235.58293	38855
235.60408	38923
235.62523	38894
235.64638	38999
235.66751	39054
235.68866	38867
235.70981	38956
235.73094	38757
235.75209	38169
235.77322	36517
