Date and Time:                Sun Jan 29 14:31:22.000 2023
Software Version:             4.31.30023.0
Temperature (C):              -40
Model:                        DU940P_BU2
Data Type:                    Counts
Acquisition Mode:             Single Scan
Trigger Mode:                 Internal
Exposure Time (secs):         1.2
Readout Mode:                 Full Vertical Binning
Horizontal binning:           1
Extended Dynamic Range:       off
Horizontally flipped:         false
Vertical Shift Speed (usecs): 14.51
Pixel Readout Rate (MHz):     3
Baseline Clamp:               ON
Clock Amplitude:              Normal
Output Amplifier:             High Capacity
Serial Number:                23634
Pre-Amplifier Gain:           1.000000
Spurious Noise Filter Mode:   No Filter
Photon counted:               false
Data Averaging Filter Mode:   No Filter
SR500i:
Serial Number:                
Wavelength (nm):              310
Grating Groove Density (l/mm):1199.47
Grating Blaze:                500
Output Flipper Port:          Direct
Accessory Output Port 1:      Off
Accessory Output Port 2:      Off
Accessory Output Port 3:      Off
Accessory Input Port:         On



288.51233	2737
288.53345	2654
288.55453	2665
288.57565	2645
288.59677	2631
288.61786	2677
288.63898	2695
288.6601	2657
288.68118	2674
288.7023	2671
288.72342	2687
288.74454	2659
288.76563	2660
288.78674	2672
288.80783	2637
288.82895	2627
288.85007	2640
288.87115	2671
288.89227	2680
288.91339	2697
288.93448	2676
288.9556	2663
288.97668	2676
288.9978	2662
289.01892	2649
289.04001	2633
289.06113	2674
289.08221	2666
289.10333	2650
289.12442	2665
289.14554	2658
289.16666	2645
289.18774	2635
289.20886	2646
289.22995	2633
289.25107	2649
289.27216	2621
289.29327	2632
289.31436	2633
289.33548	2631
289.35657	2645
289.37769	2624
289.39877	2633
289.41989	2644
289.44098	2647
289.46207	2653
289.48318	2662
289.50427	2650
289.52539	2664
289.54648	2645
289.5676	2653
289.58868	2654
289.60977	2656
289.63089	2671
289.65198	2666
289.6731	2663
289.69418	2656
289.71527	2650
289.73639	2659
289.75748	2621
289.77859	2640
289.79968	2639
289.82077	2650
289.84189	2643
289.86298	2622
289.88406	2611
289.90518	2639
289.92627	2625
289.94736	2601
289.96848	2579
289.98956	2573
290.01065	2572
290.03174	2566
290.05286	2574
290.07394	2569
290.09503	2585
290.11612	2562
290.13724	2559
290.15833	2592
290.17941	2546
290.2005	2563
290.22162	2580
290.24271	2551
290.26379	2568
290.28488	2544
290.30597	2539
290.32709	2530
290.34818	2558
290.36926	2540
290.39035	2546
290.41144	2539
290.43256	2534
290.45364	2521
290.47473	2537
290.49582	2515
290.51691	2508
290.53799	2509
290.55908	2505
290.5802	2511
290.60129	2540
290.62238	2550
290.64346	2542
290.66455	2547
290.68564	2556
290.70673	2523
290.72781	2508
290.7489	2529
290.76999	2526
290.79108	2548
290.81216	2534
290.83325	2552
290.85434	2521
290.87546	2528
290.89655	2540
290.91763	2540
290.93872	2540
290.95981	2549
290.9809	2515
291.00198	2551
291.02307	2526
291.04413	2555
291.06522	2561
291.0863	2539
291.10739	2542
291.12848	2528
291.14957	2524
291.17065	2533
291.19174	2540
291.21283	2524
291.23392	2545
291.255	2566
291.27609	2565
291.29718	2576
291.31827	2561
291.33936	2560
291.36041	2544
291.3815	2556
291.40259	2553
291.42368	2559
291.44476	2564
291.46585	2565
291.48694	2564
291.508	2546
291.52908	2564
291.55017	2561
291.57126	2554
291.59235	2569
291.6134	2573
291.63449	2584
291.65558	2592
291.67667	2599
291.69775	2648
291.71881	2661
291.7399	2681
291.76099	2715
291.78207	2697
291.80313	2716
291.82422	2707
291.84531	2702
291.86639	2687
291.88745	2694
291.90854	2690
291.92963	2738
291.95068	2749
291.97177	2740
291.99286	2772
292.01392	2778
292.035	2810
292.05609	2835
292.07715	2838
292.09824	2832
292.11932	2864
292.14038	2863
292.16147	2877
292.18256	2874
292.20361	2888
292.2247	2907
292.24579	2920
292.26685	2928
292.28793	2941
292.30899	2944
292.33008	2941
292.35114	2982
292.37222	2990
292.39331	3018
292.41437	2999
292.43546	3034
292.45651	3037
292.4776	3037
292.49866	3034
292.51974	3068
292.5408	3063
292.56189	3062
292.58295	3075
292.60403	3070
292.62509	3101
292.64618	3137
292.66724	3159
292.68832	3223
292.70938	3225
292.73047	3216
292.75153	3240
292.77261	3291
292.79367	3292
292.81476	3318
292.83582	3358
292.85687	3370
292.87796	3394
292.89902	3364
292.9201	3429
292.94116	3454
292.96222	3486
292.98331	3511
293.00436	3570
293.02542	3580
293.04651	3605
293.06757	3607
293.08865	3681
293.10971	3723
293.13077	3796
293.15186	3821
293.17291	3892
293.19397	3883
293.21503	3955
293.23611	3982
293.25717	4019
293.27823	4047
293.29932	4084
293.32037	4147
293.34143	4242
293.36249	4298
293.38358	4318
293.40463	4403
293.42569	4504
293.44675	4573
293.46783	4636
293.48889	4710
293.50995	4727
293.53101	4813
293.55209	4852
293.57315	4897
293.59421	4993
293.61526	5081
293.63632	5182
293.65738	5227
293.67847	5308
293.69952	5412
293.72058	5511
293.74164	5592
293.7627	5677
293.78375	5718
293.80481	5757
293.8259	5808
293.84695	5922
293.86801	6000
293.88907	6049
293.91013	6080
293.93118	6124
293.95224	6178
293.9733	6210
293.99435	6352
294.01541	6392
294.03647	6501
294.05753	6514
294.07858	6591
294.09964	6701
294.1207	6771
294.14175	6849
294.16284	6883
294.1839	6951
294.20496	6945
294.22598	7029
294.24704	7023
294.2681	7099
294.28915	7180
294.31021	7282
294.33127	7276
294.35233	7394
294.37338	7485
294.39444	7494
294.4155	7451
294.43655	7452
294.45761	7499
294.47867	7531
294.49973	7625
294.52078	7634
294.54184	7760
294.56287	7772
294.58392	7867
294.60498	7965
294.62604	8041
294.64709	8147
294.66815	8179
294.68921	8264
294.71024	8298
294.73129	8371
294.75235	8422
294.77341	8553
294.79446	8623
294.81552	8736
294.83655	8791
294.8576	8866
294.87866	9049
294.89972	9212
294.92075	9298
294.9418	9360
294.96286	9454
294.98392	9614
295.00494	9738
295.026	9796
295.04706	9935
295.06812	10044
295.08914	10188
295.1102	10352
295.13126	10469
295.15228	10668
295.17334	10810
295.1944	10955
295.21545	11088
295.23648	11262
295.25754	11411
295.27859	11568
295.29962	11727
295.32068	11957
295.34171	12093
295.36276	12241
295.38382	12431
295.40485	12582
295.4259	12637
295.44696	12786
295.46799	12938
295.48904	13186
295.51007	13389
295.53113	13615
295.55215	13891
295.57321	14124
295.59427	14241
295.6153	14437
295.63635	14654
295.65738	14871
295.67844	14997
295.69946	15123
295.72052	15314
295.74155	15359
295.7626	15547
295.78363	15786
295.80469	16010
295.82571	16174
295.84677	16095
295.8678	16238
295.88885	16445
295.90988	16555
295.93091	16718
295.95197	16921
295.97299	17274
295.99405	17579
296.01508	17666
296.03613	17738
296.05716	17769
296.07819	17819
296.09924	17975
296.12027	18155
296.14133	18246
296.16235	18367
296.18338	18450
296.20444	18384
296.22546	18293
296.24649	18381
296.26755	18459
296.28857	18774
296.3096	19022
296.33066	19025
296.35168	19065
296.37271	18925
296.39377	18910
296.41479	19016
296.43582	19159
296.45685	19295
296.47791	19469
296.49893	19685
296.51996	19621
296.54102	19609
296.56204	19647
296.58307	19733
296.6041	19774
296.62512	19919
296.64618	19981
296.66721	19971
296.68823	19929
296.70926	19986
296.73029	20009
296.75134	20064
296.77237	20034
296.7934	20100
296.81442	20162
296.83545	20158
296.85648	20303
296.87753	20452
296.89856	20440
296.91959	20505
296.94061	20738
296.96164	21030
296.98267	21225
297.00369	21172
297.02472	21326
297.04575	21550
297.0668	21551
297.08783	21435
297.10886	21295
297.12988	21510
297.15091	21636
297.17194	21724
297.19296	21636
297.21399	21801
297.23502	22010
297.25604	22132
297.27707	22203
297.2981	22310
297.31912	22392
297.34015	22333
297.36118	22411
297.3822	22581
297.40323	22828
297.42426	22976
297.44528	23019
297.46631	23153
297.48734	23289
297.50836	23259
297.52939	23032
297.55038	23022
297.57141	23166
297.59244	23143
297.61346	23243
297.63449	23222
297.65552	23229
297.67654	23180
297.69757	23283
297.7186	23469
297.73959	23494
297.76062	23482
297.78165	23536
297.80267	23474
297.8237	23389
297.84473	23384
297.86572	23436
297.88675	23594
297.90778	23737
297.9288	23737
297.94983	23711
297.97083	23660
297.99185	23566
298.01288	23564
298.03391	23537
298.0549	23452
298.07593	23380
298.09695	23288
298.11798	23096
298.13898	22934
298.16	23010
298.18103	22853
298.20206	22684
298.22305	22506
298.24408	22395
298.26511	22451
298.2861	22526
298.30713	22600
298.32816	22466
298.34915	22261
298.37018	22361
298.3912	22547
298.4122	22587
298.43323	22497
298.45422	22512
298.47525	22512
298.49628	22496
298.51727	22397
298.5383	22313
298.55933	22331
298.58032	22348
298.60135	22269
298.62234	22231
298.64337	22330
298.66437	22329
298.68539	22444
298.70639	22370
298.72742	22468
298.74841	22521
298.76944	22407
298.79047	22262
298.81146	22222
298.83249	22230
298.85349	22254
298.87448	22400
298.89551	22728
298.9165	22879
298.93753	22842
298.95853	22631
298.97955	22769
299.00055	22937
299.02158	23027
299.04257	23262
299.0636	23470
299.08459	23609
299.10559	23627
299.12662	23556
299.14761	23839
299.16864	24087
299.18964	24233
299.21063	24409
299.23166	24479
299.25266	24624
299.27365	24667
299.29468	24721
299.31567	24731
299.33667	25035
299.3577	25166
299.37869	25231
299.39969	25554
299.42072	25780
299.44171	26125
299.46271	26113
299.4837	26205
299.50473	26269
299.52573	26370
299.54672	26527
299.56775	26651
299.58875	26800
299.60974	26907
299.63074	26907
299.65173	26944
299.67276	26834
299.69376	26806
299.71475	26995
299.73575	27206
299.75674	27205
299.77777	27241
299.79877	27065
299.81976	27048
299.84076	26941
299.86176	27062
299.88275	27051
299.90378	27072
299.92477	26987
299.94577	26907
299.96677	26737
299.98776	26680
300.00876	26767
300.02975	26604
300.05075	26405
300.07175	26252
300.09277	26361
300.11377	26246
300.13477	26124
300.15576	26063
300.17676	25731
300.19775	25358
300.21875	25077
300.23975	24881
300.26074	24773
300.28174	24510
300.30273	24324
300.32373	24273
300.34473	24255
300.36572	24161
300.38672	23988
300.40771	23811
300.42871	23606
300.44971	23616
300.4707	23656
300.4917	23748
300.5127	23832
300.53369	23675
300.55466	23346
300.57565	23279
300.59665	23292
300.61765	23173
300.63864	23123
300.65964	23075
300.68063	23063
300.70163	22915
300.72263	22679
300.74359	22325
300.76459	22251
300.78558	22120
300.80658	22251
300.82758	22402
300.84857	22636
300.86954	22574
300.89053	22376
300.91153	22262
300.93253	22229
300.95352	22348
300.97449	22268
300.99548	22521
301.01648	22610
301.03748	22664
301.05844	22463
301.07944	22361
301.10043	22343
301.12143	22301
301.1424	22346
301.16339	22357
301.18439	22388
301.20535	22323
301.22635	22229
301.24734	22266
301.26831	22312
301.28931	22310
301.3103	22421
301.33127	22526
301.35226	22591
301.37326	22572
301.39423	22543
301.41522	22599
301.43622	22713
301.45718	22947
301.47818	23036
301.49915	23147
301.52014	23248
301.54114	23149
301.5621	23155
301.5831	23079
301.60406	22983
301.62506	22964
301.64603	22968
301.66702	23129
301.68802	23343
301.70898	23454
301.72998	23529
301.75095	23639
301.77194	23596
301.79291	23607
301.8139	23660
301.83487	23769
301.85587	23799
301.87683	23715
301.8978	23725
301.91879	23629
301.93976	23663
301.96075	23621
301.98172	23645
302.00272	23757
302.02368	23862
302.04465	23958
302.06564	23782
302.08661	23770
302.1076	23666
302.12857	23807
302.14954	23951
302.17053	24061
302.1915	24107
302.21249	24092
302.23346	24040
302.25443	24053
302.27542	23909
302.29639	23882
302.31735	23740
302.33835	23721
302.35931	23703
302.38028	23535
302.40125	23564
302.42224	23468
302.44321	23365
302.46417	23219
302.48514	23084
302.50613	22939
302.5271	22990
302.54807	22900
302.56903	22934
302.59003	22995
302.61099	22896
302.63196	22839
302.65292	23016
302.67389	23161
302.69489	23196
302.71585	23080
302.73682	23258
302.75778	23413
302.77875	23408
302.79974	23308
302.82071	23400
302.84167	23471
302.86264	23559
302.88361	23332
302.90457	23329
302.92554	23356
302.9465	23503
302.96747	23573
302.98846	23646
303.00943	23671
303.0304	23745
303.05136	23774
303.07233	23807
303.09329	24041
303.11426	24269
303.13522	24400
303.15619	24553
303.17715	24736
303.19812	24775
303.21909	24845
303.24005	24899
303.26102	25113
303.28198	25137
303.30295	25366
303.32391	25543
303.34488	25616
303.36584	25749
303.38681	25900
303.40778	26200
303.42874	26461
303.44971	26645
303.47064	26931
303.49161	27158
303.51257	27331
303.53354	27348
303.5545	27540
303.57547	27786
303.59644	28300
303.6174	28567
303.63837	28895
303.6593	28880
303.68027	29075
303.70123	29346
303.7222	29458
303.74316	29609
303.76413	29797
303.78506	29929
303.80603	29973
303.827	30088
303.84796	30293
303.86893	30440
303.88986	30323
303.91083	29967
303.93179	30041
303.95276	30448
303.97369	30662
303.99466	31097
304.01563	31275
304.03656	31101
304.05753	30948
304.07849	31146
304.09946	31473
304.12039	31340
304.14136	31390
304.16232	31346
304.18326	31391
304.20422	31392
304.22519	31189
304.24612	31165
304.26709	31198
304.28806	31092
304.30899	30752
304.32996	30728
304.35089	30715
304.37186	30623
304.39282	30514
304.41376	30463
304.43472	30331
304.45566	30233
304.47662	29813
304.49756	29501
304.51852	29220
304.53949	29132
304.56042	29112
304.58139	29138
304.60233	29189
304.62329	29075
304.64423	28735
304.66519	28413
304.68613	28441
304.70709	28319
304.72803	28330
304.74899	28246
304.76993	28389
304.79086	28348
304.81183	27978
304.83276	27860
304.85373	28060
304.87466	28156
304.89563	28053
304.91656	27884
304.9375	27611
304.95847	27485
304.9794	27286
305.00037	27148
305.0213	27142
305.04224	27225
305.0632	27047
305.08414	26938
305.10507	27044
305.12604	27143
305.14697	27202
305.16791	27000
305.18887	26902
305.20981	26805
305.23074	26824
305.25171	26819
305.27264	26930
305.29358	27080
305.31451	27065
305.33548	27008
305.35641	26967
305.37735	26831
305.39828	26681
305.41925	26728
305.44019	26827
305.46112	27089
305.48206	26929
305.50299	27010
305.52396	27035
305.54489	27206
305.56583	27218
305.58676	27294
305.6077	27147
305.62866	27201
305.6496	27177
305.67053	27186
305.69147	27264
305.7124	27381
305.73334	27461
305.75427	27626
305.77521	27806
305.79617	28118
305.81711	28238
305.83804	28371
305.85898	28314
305.87991	28323
305.90085	28385
305.92178	28280
305.94272	28377
305.96365	28228
305.98459	28303
306.00552	28545
306.02646	28704
306.04739	28958
306.06833	29049
306.08926	29005
306.1102	29027
306.13113	29096
306.15207	29413
306.173	29839
306.19394	30289
306.21487	30782
306.23581	30759
306.25674	30742
306.27768	31051
306.29861	31287
306.31952	31497
306.34045	31647
306.36139	31914
306.38232	32195
306.40326	32048
306.42419	31931
306.44513	31886
306.46606	31828
306.48697	32098
306.5079	32584
306.52884	33077
306.54977	33432
306.57071	33535
306.59164	33288
306.61255	33482
306.63348	33875
306.65442	34198
306.67535	34519
306.69629	34811
306.71719	35062
306.73813	35169
306.75906	35113
306.78	35134
306.8009	35171
306.82184	35224
306.84277	35181
306.86368	35295
306.88461	35278
306.90555	35262
306.92648	35114
306.94739	35201
306.96832	35193
306.98926	35309
307.01016	35422
307.0311	35318
307.05203	35353
307.07294	35157
307.09387	35105
307.11478	35029
307.13571	35371
307.15665	35450
307.17755	35677
307.19849	35853
307.21939	35898
307.24033	35775
307.26126	35503
307.28217	35244
307.3031	34925
307.32401	34987
307.34494	34865
307.36584	35036
307.38678	35089
307.40768	34987
307.42862	34960
307.44952	34804
307.47046	34470
307.49136	34250
307.5123	34047
307.5332	34039
307.55414	33966
307.57504	34017
307.59598	33807
307.61688	33466
307.63779	33226
307.65872	33046
307.67963	32963
307.70056	33153
307.72147	33083
307.7424	32942
307.76331	32737
307.78421	32418
307.80515	32196
307.82605	32183
307.84695	32241
307.86789	32381
307.88879	32419
307.9097	32178
307.93063	31947
307.95154	31912
307.97244	31814
307.99338	31889
308.01428	31798
308.03519	31583
308.05612	31399
308.07703	31201
308.09793	31029
308.11884	30855
308.13977	30589
308.16068	30180
308.18158	29952
308.20248	29671
308.22339	29574
308.24432	29511
308.26523	29483
308.28613	29368
308.30704	29226
308.32794	29176
308.34888	29080
308.36978	29075
308.39069	28926
308.41159	28868
308.4325	28862
308.4534	28886
308.4743	28748
308.49524	28496
308.51614	28503
308.53705	28504
308.55795	28159
308.57886	27814
308.59976	27840
308.62067	27792
308.64157	27782
308.66248	27624
308.68338	27545
308.70428	27450
308.72519	27246
308.74609	27211
308.767	27133
308.7879	27298
308.80881	27349
308.82971	27375
308.85062	27216
308.87152	27201
308.89243	27108
308.91333	27048
308.93423	27036
308.95514	26773
308.97604	26531
308.99695	26614
309.01785	26417
309.03876	26284
309.05966	26033
309.08057	25905
309.10147	25903
309.12238	25950
309.14325	26034
309.16415	26143
309.18506	26077
309.20596	25940
309.22687	25887
309.24777	25680
309.26868	25849
309.28955	26169
309.31046	26462
309.33136	26636
309.35226	26826
309.37317	27093
309.39404	27299
309.41495	27224
309.43585	27121
309.45676	27269
309.47763	27314
309.49854	27189
309.51944	27353
309.54034	27522
309.56122	27745
309.58212	27799
309.60303	27849
309.62393	28004
309.64481	28392
309.66571	28654
309.68661	28848
309.70749	29057
309.72839	28951
309.7493	29123
309.77017	29386
309.79108	29902
309.81195	29907
309.83286	30009
309.85376	30239
309.87463	30631
309.89554	30779
309.91644	30572
309.93732	30692
309.95822	30996
309.9791	31124
310	31210
310.02087	31396
310.04178	31789
310.06265	31975
310.08356	32397
310.10443	32826
310.12534	33020
310.14624	33043
310.16711	32840
310.18799	32669
310.20889	32742
310.22977	32735
310.25067	33281
310.27155	33604
310.29245	33903
310.31332	33843
310.33423	33735
310.3551	33787
310.37601	33855
310.39688	34118
310.41776	34307
310.43866	34819
310.45953	35155
310.48044	35304
310.50131	35193
310.52219	35229
310.54309	35585
310.56396	35692
310.58484	35847
310.60574	35848
310.62662	35950
310.64749	36154
310.6684	35894
310.68927	35808
310.71014	35899
310.73105	35794
310.75192	36027
310.7728	36392
310.79367	36540
310.81458	36876
310.83545	36998
310.85632	36855
310.8772	37263
310.8981	37397
310.91898	37556
310.93985	37736
310.96072	37852
310.9816	37813
311.0025	37801
311.02338	38041
311.04425	38050
311.06512	38109
311.086	38175
311.10687	38081
311.12775	38110
311.14865	38357
311.16953	38143
311.1904	38061
311.21127	37933
311.23215	38128
311.25302	38456
311.2739	38348
311.29477	38593
311.31564	38256
311.33652	38060
311.35739	38248
311.3783	38453
311.39917	38610
311.42004	38717
311.44092	38842
311.46179	38831
311.48267	38956
311.50354	38760
311.52441	38618
311.54529	38407
311.56616	38187
311.58704	37930
311.60788	37526
311.62875	37438
311.64963	37379
311.6705	37082
311.69138	37062
311.71225	37420
311.73312	37245
311.754	37221
311.77487	37430
311.79575	37090
311.81662	37233
311.83746	37282
311.85834	37519
311.87921	38217
311.90009	38061
311.92096	38123
311.94183	37852
311.96271	37927
311.98355	38003
312.00443	38085
312.0253	38030
312.04617	38066
312.06705	38003
312.08789	37487
312.10876	37207
312.12964	37039
312.15051	36784
312.17136	37002
312.19223	37174
312.2131	37639
312.23395	37506
312.25482	37341
312.2757	36896
312.29657	36782
312.31741	36892
312.33829	37181
312.35916	37522
312.38	37541
312.40088	37568
312.42175	37324
312.4426	37210
312.46347	37015
312.48431	36762
312.50519	36549
312.52606	36607
312.54691	36451
312.56778	36298
312.58862	36378
312.6095	36194
312.63037	36139
312.65121	36019
312.67209	35992
312.69293	35706
312.71381	35614
312.73465	35438
312.75552	35165
312.77637	35115
312.79724	35121
312.81808	34951
312.83896	35375
312.8598	35220
312.88068	35390
312.90152	35266
312.92239	35210
312.94324	35346
312.96411	35086
312.98495	35139
313.0058	35071
313.02667	35011
313.04752	35195
313.06839	35163
313.08923	35166
313.11008	34942
313.13095	34991
313.15179	34876
313.17267	34534
313.19351	34477
313.21436	34413
313.23523	34347
313.25607	34519
313.27692	34523
313.29779	34230
313.31863	34184
313.33948	33921
313.36032	34292
313.3812	34464
313.40204	34360
313.42288	34283
313.44376	34064
313.4646	34002
313.48544	33853
313.50629	34208
313.52713	34312
313.548	34581
313.56885	34954
313.58969	34674
313.61053	34604
313.63138	34530
313.65225	34600
313.6731	34906
313.69394	34898
313.71478	34981
313.73563	34894
313.75647	34584
313.77734	34573
313.79819	34775
313.81903	34497
313.83987	34207
313.86072	33739
313.88156	33861
313.9024	34035
313.92325	34205
313.94409	34348
313.96494	34506
313.98578	34351
314.00662	34278
314.02747	34671
314.04831	34588
314.06915	34496
314.09	34397
314.11084	34766
314.13168	34651
314.15253	34676
314.17337	34432
314.19421	34543
314.21506	34495
314.2359	34249
314.25674	33891
314.27759	33956
314.29843	33933
314.31927	34084
314.34012	33971
314.36096	33976
314.38181	33899
314.40265	33628
314.42346	33229
314.44431	33147
314.46515	33104
314.48599	33080
314.50684	33041
314.52768	33117
314.54849	32962
314.56934	32740
314.59018	32695
314.61102	32596
314.63187	32396
314.65271	32334
314.67352	32480
314.69437	32422
314.71521	32337
314.73605	32224
314.75687	32077
314.77771	32200
314.79855	32187
314.81937	32251
314.84021	32458
314.86105	32537
314.8819	32110
314.90271	31913
314.92355	31731
314.9444	31846
314.96521	32008
314.98605	31951
315.0069	31994
315.02771	32116
315.04855	32260
315.0694	32320
315.09021	32057
315.11105	31979
315.13187	31881
315.15271	31902
315.17355	31664
315.19437	31794
315.21521	31800
315.23602	31821
315.25687	31646
315.27768	31491
315.29852	31287
315.31934	31541
315.34018	31749
315.36099	31816
315.38184	31756
315.40265	31458
315.42349	31413
315.44431	31554
315.46515	31711
315.48596	31660
315.50681	31571
315.52762	31526
315.54846	31587
315.56927	31583
315.59009	31446
315.61093	31473
315.63174	31605
315.65259	31467
315.6734	31456
315.69421	31780
315.71506	31876
315.73587	31848
315.75668	31920
315.77753	32072
315.79834	32037
315.81918	31938
315.84	31708
315.86081	31630
315.88162	31540
315.90247	31554
315.92328	31802
315.94409	32138
315.96494	32215
315.98575	32155
316.00656	32056
316.02737	32053
316.04822	32122
316.06903	32316
316.08984	32534
316.11066	32825
316.13147	33175
316.15231	33310
316.17313	32932
316.19394	33264
316.21475	33420
316.23557	33426
316.25641	33285
316.27722	33447
316.29803	33561
316.31885	33564
316.33966	33391
316.36047	33197
316.38129	33099
316.4021	33126
316.42291	33391
316.44376	33825
316.46457	34104
316.48538	34512
316.5062	34504
316.52701	34461
316.54782	34495
316.56863	34541
316.58945	34841
316.61026	35032
316.63107	35070
316.65189	35406
316.6727	35265
316.69351	35417
316.71432	35448
316.73514	35374
316.75595	35487
316.77676	35564
316.79758	35613
316.81839	35694
316.8392	35447
316.85999	35362
316.8808	35501
316.90161	35592
316.92242	35982
316.94324	36143
316.96405	36063
316.98486	35934
317.00568	35589
317.02646	35862
317.04727	36157
317.06808	36606
317.0889	36815
317.10971	36786
317.13052	37194
317.15131	37427
317.17212	37456
317.19293	37141
317.21375	37287
317.23453	37241
317.25534	37392
317.27615	37183
317.29697	37299
317.31775	37154
317.33856	37305
317.35938	37653
317.38019	37734
317.40097	37955
317.42178	38086
317.4426	38118
317.46338	38118
317.48419	38430
317.505	39019
317.52579	39353
317.5466	39969
317.56741	40562
317.5882	40389
317.60901	40671
317.62979	40440
317.6506	41371
317.67142	41223
317.6922	41584
317.71301	41645
317.7338	41715
317.75461	41688
317.77542	41743
317.7962	41712
317.81702	42253
317.8378	42500
317.85861	42891
317.87939	43193
317.90021	43412
317.92099	43314
317.9418	43657
317.96259	44080
317.9834	44396
318.00418	44853
318.02496	45313
318.04578	45613
318.06656	46044
318.08737	45916
318.10815	46107
318.12897	46304
318.14975	46404
318.17053	46415
318.19135	46681
318.21213	46578
318.23291	46720
318.25372	46805
318.27451	47147
318.29532	46955
318.3161	46949
318.33688	47030
318.3577	46918
318.37848	46938
318.39926	46907
318.42004	47039
318.44086	47118
318.46164	47139
318.48242	47412
318.5032	47523
318.52402	47562
318.5448	47620
318.56558	47551
318.58636	47414
318.60718	47305
318.62796	47300
318.64874	47230
318.66953	47091
318.69031	47061
318.71112	46843
318.7319	46808
318.75269	46629
318.77347	46473
318.79425	46101
318.81503	45780
318.83582	45481
318.85663	45077
318.87741	44760
318.89819	44507
318.91898	44009
318.93976	43981
318.96054	43474
318.98132	43084
319.00211	42719
319.02289	43031
319.04367	42701
319.06445	42465
319.08524	42152
319.10602	42131
319.1268	41742
319.14758	41198
319.16837	41211
319.18915	40949
319.20993	40988
319.23071	41114
319.2515	40621
319.27228	40366
319.29306	40477
319.31384	40096
319.33463	39902
319.35541	39477
319.37619	39380
319.39697	38899
319.41772	38704
319.43851	38418
319.45929	38251
319.48007	38122
319.50085	37422
319.52164	37115
319.54242	36914
319.56317	36748
319.58395	36570
319.60474	36696
319.62552	36670
319.6463	36225
319.66705	36285
319.68784	36071
319.70862	36342
319.7294	35904
319.75015	35821
319.77094	35770
319.79172	35657
319.8125	35661
319.83325	35479
319.85403	35146
319.87482	35044
319.89557	34754
319.91635	34564
319.93713	34507
319.95789	34448
319.97867	34251
319.99945	34216
320.0202	34248
320.04099	33974
320.06177	33458
320.08252	33165
320.1033	32774
320.12405	32746
320.14484	32679
320.16562	32538
320.18637	32648
320.20715	32569
320.22791	32511
320.24869	32483
320.26944	32566
320.29022	32542
320.31097	32516
320.33176	32652
320.35251	32825
320.37329	32722
320.39404	32477
320.41483	32446
320.43558	32444
320.45636	32725
320.47711	32715
320.49789	32870
320.51865	32995
320.53943	32709
320.56018	32729
320.58093	32640
320.60172	32694
320.62247	32863
320.64325	32851
320.664	32723
320.68475	32955
320.70554	33222
320.72629	33256
320.74704	33259
320.76782	33254
320.78857	33509
320.80933	33396
320.83011	33604
320.85086	33799
320.87161	34011
320.89236	34121
320.91315	34022
320.9339	34057
320.95465	33893
320.97543	34153
320.99619	34276
321.01694	34425
321.03769	34489
321.05844	34316
321.07922	34290
321.09998	34622
321.12073	34741
321.14148	34824
321.16223	34806
321.18301	34838
321.20377	34894
321.22452	34848
321.24527	34888
321.26602	35078
321.28677	35294
321.30753	35261
321.32828	35438
321.34903	35639
321.36981	35965
321.39056	36119
321.41132	35891
321.43207	35885
321.45282	35845
321.47357	36032
321.49432	35708
321.51508	35965
321.53583	36082
321.55658	36417
321.57733	36620
321.59808	36766
321.61884	37120
321.63959	36947
321.66034	37345
321.68109	37255
321.70184	37427
321.7226	37881
321.74335	38450
321.76407	38774
321.78482	39208
321.80557	39224
321.82632	39100
321.84708	39821
321.86783	39695
321.88858	39740
321.90933	40051
321.93005	40050
321.95081	39931
321.97156	40111
321.99231	39918
322.01306	40147
322.03381	40380
322.05453	40367
322.07529	40588
322.09604	41153
322.11679	41177
322.13751	41488
322.15826	41570
322.17902	41680
322.19977	41939
322.22049	42354
322.24124	42220
322.26199	42692
322.28275	42932
322.30347	42780
322.32422	42992
322.34497	42951
322.36569	42998
322.38644	42709
322.4072	42659
322.42792	42604
322.44867	42687
322.46942	43052
322.49014	42762
322.51089	42898
322.53162	42964
322.55237	42899
322.57309	42913
322.59384	42620
322.61459	42757
322.63531	42165
322.65607	41952
322.67679	41694
322.69754	42064
322.71826	41939
322.73901	42067
322.75974	42343
322.78049	42158
322.80121	42390
322.82196	41996
322.84268	41794
322.86343	41528
322.88416	41652
322.90491	41389
322.92563	41443
322.94635	40935
322.9671	40602
322.98782	40391
323.00858	40288
323.0293	40329
323.05002	40129
323.07077	39874
323.09149	40063
323.11221	39544
323.13297	39875
323.15369	39798
323.17441	40132
323.19516	40170
323.21588	40359
323.2366	39995
323.25735	40027
323.27808	39888
323.2988	39583
323.31955	39792
323.34027	39588
323.36099	39575
323.38171	39236
323.40247	39128
323.42319	39196
323.44391	38787
323.46463	39157
323.48535	39045
323.5061	39193
323.52682	39483
323.54755	39015
323.56827	38952
323.58899	38717
323.60971	39034
323.63043	38936
323.65118	39351
323.67191	39345
323.69263	39723
323.71335	39422
323.73407	39354
323.75479	39524
323.77551	39667
323.79623	39842
323.81696	40010
323.83768	39705
323.8584	39765
323.87912	39469
323.89984	39596
323.92056	39413
323.94128	39504
323.96201	39121
323.98273	39142
324.00345	38890
324.02417	39153
324.04489	39119
324.06561	39310
324.08633	39340
324.10706	39526
324.12778	39558
324.1485	39516
324.16922	39793
324.18994	39761
324.21066	39775
324.23135	40031
324.25208	40316
324.2728	40097
324.29352	40072
324.31424	40025
324.33496	39786
324.35568	40098
324.37637	40065
324.39709	40217
324.41782	39934
324.43854	40154
324.45926	39907
324.47995	39908
324.50067	39696
324.52139	39694
324.54211	39657
324.56281	39746
324.58353	39628
324.60425	39243
324.62494	39410
324.64566	39222
324.66638	39229
324.6871	39473
324.70779	39644
324.72852	39564
324.74924	39724
324.76993	39728
324.79065	39515
324.81134	39542
324.83206	39313
324.85278	39925
324.87347	39847
324.8942	39901
324.91492	39911
324.93561	39947
324.95633	39905
324.97702	39788
324.99774	39928
325.01843	39818
325.03915	39940
325.05984	39958
325.08057	39862
325.10126	40016
325.12198	40273
325.14267	39880
325.16339	39895
325.18408	39990
325.2048	40013
325.22549	40237
325.24622	40483
325.26691	40735
325.28763	40479
325.30832	40690
325.32901	40809
325.34973	41086
325.37042	40816
325.39114	41178
325.41183	40959
325.43253	41422
325.45325	41535
325.47394	41524
325.49463	41620
325.51535	41629
325.53604	41563
325.55673	41552
325.57745	41340
325.59814	41689
325.61884	41681
325.63953	41672
325.66025	41824
325.68094	41751
325.70163	41856
325.72232	41599
325.74304	41610
325.76373	41464
325.78442	41518
325.80511	41793
325.82581	41912
325.84653	42008
325.86722	42239
325.88791	42326
325.9086	42760
325.92929	42463
325.94998	42689
325.9707	43135
325.99139	43049
326.01208	43498
326.03278	43327
326.05347	42979
326.07416	43291
326.09485	43499
326.11554	43789
326.13623	43944
326.15692	43741
326.17761	43931
326.1983	43863
326.21899	43365
326.23969	43605
326.26038	43329
326.28107	43296
326.30176	43581
326.32245	43536
326.34314	43818
326.36383	44015
326.38452	43875
326.40521	43853
326.4259	43850
326.44659	43677
326.46729	43786
326.48798	43792
326.50867	43805
326.52936	43811
326.55005	43630
326.57071	43665
326.5914	43210
326.61209	43059
326.63278	42613
326.65347	42790
326.67416	42760
326.69485	42260
326.71552	42255
326.73621	42059
326.7569	41986
326.77759	41848
326.79825	41904
326.81894	41573
326.83963	41377
326.86032	41188
326.88098	41055
326.90167	41095
326.92236	40987
326.94305	40977
326.96371	41060
326.98441	40841
327.0051	41045
327.02576	40783
327.04645	40890
327.06714	40296
327.0878	40137
327.10849	39976
327.12918	39962
327.14984	39876
327.17053	39740
327.19119	39646
327.21188	39577
327.23257	39516
327.25323	39442
327.27393	39827
327.29459	39609
327.31528	39493
327.33594	39661
327.35663	39985
327.37729	40088
327.39798	40694
327.41864	40483
327.43933	40825
327.45999	40733
327.48068	40739
327.50134	40594
327.52203	40828
327.54269	40861
327.56339	41444
327.58405	41216
327.60474	41385
327.6254	41369
327.64606	40915
327.66675	41321
327.68741	41467
327.70807	41595
327.72876	42050
327.74942	42591
327.77011	42731
327.79077	42715
327.81143	42526
327.83212	42916
327.85278	43411
327.87344	43613
327.8941	43754
327.91479	44127
327.93546	44268
327.95612	44194
327.97681	44487
327.99747	44652
328.01813	44958
328.03879	45091
328.05945	45128
328.08014	45605
328.1008	45702
328.12146	46032
328.14212	45988
328.16278	46233
328.18347	46427
328.20413	46235
328.22479	46335
328.24545	46645
328.26611	46727
328.28677	47028
328.30743	46866
328.32809	46971
328.34879	47377
328.36945	47431
328.39011	47545
328.41077	47641
328.43143	47813
328.45209	47793
328.47275	47646
328.49341	47660
328.51407	47700
328.53473	47525
328.55539	47476
328.57605	47523
328.59671	47548
328.61737	47373
328.63803	47207
328.65869	47222
328.67935	47310
328.70001	47111
328.72067	47431
328.74133	47222
328.76196	47472
328.78262	47378
328.80328	47558
328.82394	47608
328.8446	47624
328.86526	47609
328.88593	47530
328.90659	47157
328.92722	47147
328.94788	46895
328.96854	46804
328.9892	46653
329.00986	46397
329.03049	46289
329.05115	46304
329.07181	46189
329.09247	46116
329.11313	45972
329.13376	46077
329.15442	45994
329.17508	45815
329.19571	45509
329.21637	45438
329.23703	45184
329.25769	45182
329.27832	45053
329.29898	44817
329.31964	44982
329.34027	45192
329.36093	45176
329.38156	44971
329.40222	44949
329.42288	45109
329.44351	45115
329.46417	44709
329.4848	44705
329.50546	44185
329.52612	44059
329.54675	44092
329.56741	43821
329.58804	43449
329.6087	43686
329.62933	43412
329.64999	43624
329.67062	43704
329.69128	43547
329.71191	43871
329.73257	44073
329.7532	43916
329.77386	44040
329.79449	43644
329.81516	44204
329.83578	44304
329.85641	43997
329.87708	44335
329.89771	44139
329.91837	44043
329.939	43924
329.95963	44105
329.98029	44019
330.00092	43944
330.02158	43786
330.04221	43961
330.06284	44137
330.0835	43972
330.10413	43598
330.12476	43614
330.14539	43512
330.16605	43600
330.18668	43597
330.20731	43360
330.22794	43174
330.2486	43366
330.26923	43475
330.28986	43140
330.31049	43321
330.33115	43300
330.35178	42980
330.37241	43237
330.39304	42903
330.41367	43094
330.43433	42878
330.45496	43196
330.47559	42939
330.49622	43055
330.51685	42979
330.53748	42806
330.55811	42859
330.57874	42668
330.59937	42939
330.62003	42593
330.64066	42854
330.66129	42747
330.68192	42621
330.70255	42455
330.72318	42504
330.7438	42146
330.76443	42239
330.78506	42094
330.80569	42296
330.82632	42321
330.84695	42209
330.86758	42138
330.88821	42113
330.90884	41768
330.92947	41924
330.9501	41573
330.9707	41617
330.99133	41688
331.01196	41158
331.03259	41557
331.05322	41092
331.07385	41440
331.09448	41426
331.11511	41232
331.13571	41231
331.15634	41232
331.17697	40981
331.1976	40947
331.21823	40587
331.23886	39654
331.25946	37655
