# Columns are Wavelength, oob_c
368.97259 0.00718
368.99327 0.00700
369.01392 0.00690
369.03459 0.00683
369.05524 0.00673
369.07593 0.00661
369.09658 0.00643
369.11722 0.00627
369.13790 0.00605
369.15855 0.00598
369.17920 0.00587
369.19987 0.00578
369.22052 0.00571
369.24120 0.00568
369.26185 0.00561
369.28249 0.00561
369.30317 0.00551
369.32382 0.00545
369.34447 0.00542
369.36511 0.00543
369.38579 0.00538
369.40644 0.00530
369.42710 0.00519
369.44778 0.00509
369.46842 0.00500
369.48907 0.00496
369.50972 0.00496
369.53040 0.00489
369.55104 0.00477
369.57169 0.00468
369.59234 0.00461
369.61302 0.00450
369.63366 0.00443
369.65431 0.00432
369.67496 0.00424
369.69561 0.00419
369.71628 0.00415
369.73693 0.00413
369.75758 0.00408
369.77823 0.00400
369.79887 0.00392
369.81952 0.00386
369.84021 0.00381
369.86086 0.00379
369.88150 0.00375
369.90215 0.00367
369.92280 0.00363
369.94345 0.00361
369.96409 0.00357
369.98474 0.00352
370.00539 0.00346
370.02607 0.00340
370.04671 0.00332
370.06736 0.00329
370.08801 0.00328
370.10866 0.00325
370.12930 0.00319
370.14995 0.00315
370.17060 0.00308
370.19125 0.00304
370.21190 0.00299
370.23254 0.00294
370.25319 0.00291
370.27384 0.00286
370.29450 0.00281
370.31514 0.00279
370.33579 0.00278
370.35644 0.00272
370.37709 0.00267
370.39773 0.00272
370.41838 0.00272
370.43903 0.00264
370.45965 0.00261
370.48029 0.00258
370.50094 0.00255
370.52159 0.00250
370.54224 0.00244
370.56288 0.00239
370.58353 0.00240
370.60418 0.00237
370.62483 0.00236
370.64544 0.00231
370.66609 0.00230
370.68674 0.00225
370.70739 0.00221
370.72803 0.00215
370.74868 0.00212
370.76930 0.00208
370.78995 0.00206
370.81060 0.00208
370.83124 0.00212
370.85189 0.00211
370.87251 0.00212
370.89316 0.00215
370.91381 0.00214
370.93446 0.00214
370.95508 0.00214
370.97573 0.00213
370.99637 0.00213
371.01702 0.00212
371.03764 0.00211
371.05829 0.00208
371.07893 0.00202
371.09955 0.00193
371.12020 0.00191
371.14085 0.00188
371.16146 0.00183
371.18211 0.00180
371.20276 0.00177
371.22338 0.00176
371.24403 0.00172
371.26467 0.00171
371.28529 0.00171
371.30594 0.00171
371.32659 0.00171
371.34720 0.00169
371.36785 0.00169
371.38847 0.00166
371.40912 0.00164
371.42976 0.00163
371.45038 0.00162
371.47103 0.00161
371.49165 0.00161
371.51229 0.00160
371.53291 0.00153
371.55356 0.00158
371.57418 0.00157
371.59482 0.00158
371.61544 0.00160
371.63609 0.00160
371.65671 0.00157
371.67736 0.00154
371.69797 0.00154
371.71862 0.00153
371.73924 0.00150
371.75989 0.00148
371.78050 0.00149
371.80115 0.00150
371.82177 0.00151
371.84242 0.00147
371.86303 0.00146
371.88365 0.00146
371.90430 0.00146
371.92492 0.00144
371.94556 0.00143
371.96618 0.00142
371.98680 0.00142
372.00745 0.00140
372.02807 0.00141
372.04871 0.00139
372.06933 0.00137
372.08995 0.00136
372.11060 0.00135
372.13121 0.00134
372.15183 0.00143
372.17245 0.00131
372.19310 0.00132
372.21371 0.00133
372.23433 0.00134
372.25499 0.00132
372.27560 0.00131
372.29621 0.00129
372.31683 0.00128
372.33749 0.00128
372.35811 0.00127
372.37872 0.00129
372.39933 0.00129
372.41999 0.00131
372.44061 0.00129
372.46122 0.00130
372.48183 0.00127
372.50245 0.00127
372.52311 0.00125
372.54373 0.00124
372.56433 0.00124
372.58495 0.00126
372.60557 0.00125
372.62619 0.00124
372.64683 0.00123
372.66745 0.00122
372.68807 0.00120
372.70869 0.00121
372.72931 0.00119
372.74992 0.00117
372.77054 0.00113
372.79116 0.00109
372.81178 0.00108
372.83242 0.00107
372.85304 0.00106
372.87366 0.00106
372.89428 0.00106
372.91489 0.00109
372.93551 0.00108
372.95613 0.00108
372.97675 0.00106
372.99737 0.00106
373.01798 0.00107
373.03860 0.00107
373.05922 0.00107
373.07984 0.00107
373.10045 0.00106
373.12107 0.00106
373.14169 0.00105
373.16231 0.00105
373.18292 0.00104
373.20354 0.00103
373.22416 0.00105
373.24475 0.00106
373.26536 0.00105
373.28598 0.00106
373.30660 0.00107
373.32722 0.00108
373.34784 0.00109
373.36845 0.00108
373.38907 0.00110
373.40969 0.00109
373.43028 0.00108
373.45089 0.00107
373.47151 0.00108
373.49213 0.00108
373.51275 0.00109
373.53336 0.00109
373.55395 0.00107
373.57457 0.00108
373.59519 0.00105
373.61581 0.00103
373.63642 0.00101
373.65701 0.00099
373.67763 0.00097
373.69825 0.00097
373.71886 0.00096
373.73945 0.00096
373.76007 0.00096
373.78069 0.00096
373.80130 0.00096
373.82189 0.00097
373.84251 0.00098
373.86313 0.00098
373.88371 0.00096
373.90432 0.00095
373.92494 0.00093
373.94553 0.00092
373.96615 0.00092
373.98676 0.00090
374.00735 0.00089
374.02797 0.00089
374.04859 0.00088
374.06918 0.00088
374.08979 0.00086
374.11038 0.00083
374.13100 0.00084
374.15162 0.00084
374.17220 0.00083
374.19282 0.00083
374.21341 0.00082
374.23403 0.00083
374.25461 0.00082
374.27523 0.00082
374.29585 0.00082
374.31644 0.00081
374.33706 0.00083
374.35764 0.00084
374.37826 0.00087
374.39885 0.00085
374.41947 0.00084
374.44005 0.00083
374.46067 0.00082
374.48126 0.00082
374.50188 0.00082
374.52245 0.00082
374.54304 0.00082
374.56366 0.00083
374.58425 0.00082
374.60487 0.00081
374.62545 0.00080
374.64607 0.00079
374.66666 0.00080
374.68725 0.00081
374.70786 0.00081
374.72845 0.00080
374.74907 0.00079
374.76966 0.00078
374.79025 0.00076
374.81086 0.00076
374.83145 0.00075
374.85204 0.00076
374.87266 0.00077
374.89324 0.00078
374.91383 0.00077
374.93445 0.00077
374.95504 0.00076
374.97562 0.00076
374.99620 0.00076
375.01682 0.00077
375.03741 0.00076
375.05800 0.00076
375.07858 0.00075
375.09920 0.00076
375.11979 0.00076
375.14038 0.00075
375.16096 0.00076
375.18158 0.00077
375.20217 0.00077
375.22276 0.00076
375.24335 0.00076
375.26393 0.00076
375.28455 0.00076
375.30514 0.00076
375.32573 0.00076
375.34631 0.00076
375.36689 0.00076
375.38748 0.00075
375.40807 0.00075
375.42869 0.00074
375.44927 0.00073
375.46986 0.00073
375.49045 0.00073
375.51104 0.00073
375.53162 0.00072
375.55221 0.00070
375.57280 0.00069
375.59339 0.00071
375.61398 0.00070
375.63456 0.00071
375.65515 0.00070
375.67574 0.00070
375.69632 0.00069
375.71690 0.00069
375.73749 0.00069
375.75808 0.00068
375.77867 0.00067
375.79926 0.00068
375.81984 0.00070
375.84043 0.00069
375.86102 0.00068
375.88161 0.00069
375.90219 0.00069
375.92278 0.00069
375.94337 0.00068
375.96396 0.00069
375.98455 0.00068
376.00513 0.00070
376.02571 0.00069
376.04630 0.00069
376.06686 0.00070
376.08744 0.00069
376.10803 0.00068
376.12862 0.00068
376.14921 0.00067
376.16980 0.00066
376.19038 0.00066
376.21094 0.00066
376.23153 0.00068
376.25212 0.00067
376.27270 0.00068
376.29329 0.00068
376.31384 0.00068
376.33443 0.00068
376.35502 0.00068
376.37560 0.00068
376.39619 0.00068
376.41675 0.00067
376.43734 0.00069
376.45792 0.00068
376.47848 0.00068
376.49907 0.00067
376.51966 0.00066
376.54025 0.00065
376.56080 0.00065
376.58138 0.00065
376.60197 0.00065
376.62253 0.00066
376.64311 0.00066
376.66370 0.00065
376.68426 0.00066
376.70485 0.00065
376.72544 0.00066
376.74599 0.00066
376.76658 0.00066
376.78714 0.00066
376.80773 0.00067
376.82830 0.00066
376.84886 0.00065
376.86945 0.00065
376.89001 0.00065
376.91060 0.00064
376.93118 0.00065
376.95174 0.00064
376.97233 0.00062
376.99289 0.00062
377.01347 0.00061
377.03403 0.00061
377.05462 0.00061
377.07517 0.00061
377.09576 0.00061
377.11631 0.00060
377.13690 0.00059
377.15746 0.00059
377.17805 0.00058
377.19861 0.00057
377.21919 0.00058
377.23975 0.00058
377.26031 0.00058
377.28090 0.00057
377.30144 0.00058
377.32203 0.00058
377.34259 0.00057
377.36315 0.00057
377.38374 0.00056
377.40429 0.00056
377.42488 0.00056
377.44544 0.00056
377.46600 0.00055
377.48658 0.00055
377.50713 0.00055
377.52769 0.00055
377.54828 0.00055
377.56884 0.00055
377.58939 0.00055
377.60998 0.00055
377.63054 0.00055
377.65110 0.00055
377.67166 0.00056
377.69224 0.00057
377.71279 0.00057
377.73335 0.00057
377.75391 0.00056
377.77449 0.00057
377.79505 0.00056
377.81561 0.00056
377.83617 0.00056
377.85676 0.00055
377.87731 0.00055
377.89787 0.00055
377.91842 0.00054
377.93898 0.00054
377.95953 0.00053
377.98012 0.00052
378.00068 0.00054
378.02124 0.00055
378.04180 0.00054
378.06235 0.00054
378.08291 0.00053
378.10346 0.00053
378.12402 0.00053
378.14461 0.00053
378.16516 0.00053
378.18572 0.00053
378.20628 0.00053
378.22684 0.00052
378.24739 0.00051
378.26795 0.00052
378.28850 0.00051
378.30906 0.00051
378.32962 0.00050
378.35017 0.00052
378.37073 0.00051
378.39129 0.00051
378.41185 0.00049
378.43241 0.00051
378.45296 0.00051
378.47351 0.00051
378.49407 0.00051
378.51463 0.00050
378.53518 0.00050
378.55574 0.00049
378.57630 0.00049
378.59686 0.00049
378.61742 0.00049
378.63796 0.00049
378.65849 0.00049
378.67905 0.00049
378.69961 0.00049
378.72017 0.00049
378.74072 0.00049
378.76128 0.00048
378.78184 0.00048
378.80240 0.00048
378.82291 0.00049
378.84347 0.00048
378.86403 0.00048
378.88459 0.00048
378.90515 0.00048
378.92567 0.00048
378.94623 0.00048
378.96678 0.00049
378.98734 0.00048
379.00790 0.00049
379.02842 0.00048
379.04898 0.00049
379.06954 0.00048
379.09007 0.00049
379.11063 0.00048
379.13117 0.00048
379.15173 0.00049
379.17226 0.00048
379.19282 0.00048
379.21337 0.00048
379.23390 0.00048
379.25446 0.00047
379.27502 0.00047
379.29554 0.00047
379.31609 0.00047
379.33665 0.00046
379.35718 0.00046
379.37774 0.00045
379.39830 0.00046
379.41882 0.00051
379.43937 0.00046
379.45990 0.00046
379.48046 0.00045
379.50099 0.00046
379.52154 0.00049
379.54210 0.00047
379.56263 0.00045
379.58319 0.00046
379.60370 0.00045
379.62426 0.00045
379.64479 0.00045
379.66535 0.00044
379.68588 0.00045
379.70643 0.00044
379.72696 0.00044
379.74751 0.00045
379.76804 0.00045
379.78860 0.00044
379.80912 0.00043
379.82968 0.00044
379.85021 0.00044
379.87073 0.00045
379.89129 0.00044
379.91181 0.00044
379.93237 0.00045
379.95290 0.00044
379.97346 0.00044
379.99398 0.00045
380.01450 0.00045
380.03506 0.00045
380.05559 0.00044
380.07612 0.00044
380.09667 0.00045
380.11720 0.00044
380.13773 0.00045
380.15828 0.00044
380.17881 0.00044
380.19933 0.00044
380.21989 0.00044
380.24042 0.00044
380.26095 0.00044
380.28148 0.00044
380.30202 0.00043
380.32255 0.00043
380.34308 0.00043
380.36361 0.00043
380.38417 0.00042
380.40469 0.00043
380.42521 0.00042
380.44574 0.00042
380.46627 0.00043
380.48682 0.00042
380.50735 0.00043
380.52788 0.00042
380.54840 0.00043
380.56893 0.00043
380.58948 0.00043
380.61001 0.00043
380.63054 0.00043
380.65107 0.00043
380.67160 0.00042
380.69211 0.00043
380.71264 0.00044
380.73317 0.00043
380.75370 0.00044
380.77426 0.00044
380.79478 0.00044
380.81530 0.00043
380.83583 0.00043
380.85636 0.00043
380.87689 0.00043
380.89741 0.00042
380.91794 0.00043
380.93846 0.00042
380.95899 0.00042
380.97952 0.00042
381.00004 0.00041
381.02057 0.00042
381.04110 0.00042
381.06162 0.00042
381.08214 0.00042
381.10267 0.00041
381.12320 0.00042
381.14373 0.00041
381.16423 0.00042
381.18474 0.00041
381.20527 0.00041
381.22580 0.00042
381.24633 0.00041
381.26686 0.00041
381.28738 0.00041
381.30790 0.00042
381.32843 0.00042
381.34893 0.00041
381.36946 0.00042
381.38998 0.00042
381.41050 0.00042
381.43103 0.00042
381.45156 0.00041
381.47206 0.00042
381.49258 0.00042
381.51311 0.00044
381.53363 0.00041
381.55416 0.00041
381.57466 0.00041
381.59518 0.00040
381.61571 0.00041
381.63624 0.00041
381.65673 0.00041
381.67726 0.00042
381.69778 0.00041
381.71828 0.00041
381.73881 0.00041
381.75933 0.00040
381.77983 0.00040
381.80035 0.00041
381.82088 0.00041
381.84138 0.00040
381.86190 0.00039
381.88243 0.00041
381.90292 0.00041
381.92345 0.00041
381.94398 0.00041
381.96448 0.00040
381.98500 0.00037
382.00549 0.00040
382.02602 0.00041
382.04655 0.00040
382.06705 0.00041
382.08757 0.00041
382.10806 0.00040
382.12859 0.00040
382.14909 0.00040
382.16962 0.00040
382.19011 0.00040
382.21063 0.00040
382.23113 0.00040
382.25166 0.00040
382.27216 0.00039
382.29268 0.00039
382.31317 0.00040
382.33370 0.00041
382.35420 0.00041
382.37473 0.00040
382.39522 0.00040
382.41574 0.00040
382.43624 0.00040
382.45674 0.00040
382.47727 0.00040
382.49776 0.00040
382.51828 0.00040
382.53878 0.00039
382.55928 0.00040
382.57981 0.00039
382.60030 0.00040
382.62079 0.00039
382.64132 0.00039
382.66182 0.00040
382.68232 0.00040
382.70284 0.00040
382.72333 0.00039
382.74383 0.00039
382.76436 0.00039
382.78486 0.00039
382.80535 0.00039
382.82584 0.00039
382.84637 0.00039
382.86687 0.00039
382.88737 0.00039
382.90785 0.00039
382.92838 0.00039
382.94888 0.00038
382.96938 0.00038
382.98988 0.00039
383.01036 0.00038
383.03089 0.00039
383.05139 0.00038
383.07189 0.00038
383.09239 0.00037
383.11288 0.00038
383.13337 0.00037
383.15390 0.00038
383.17440 0.00038
383.19490 0.00038
383.21539 0.00038
383.23588 0.00037
383.25638 0.00038
383.27688 0.00038
383.29737 0.00038
383.31787 0.00038
383.33836 0.00038
383.35889 0.00038
383.37939 0.00038
383.39988 0.00038
383.42038 0.00038
383.44087 0.00037
383.46137 0.00037
383.48187 0.00037
383.50236 0.00037
383.52286 0.00037
383.54335 0.00037
383.56385 0.00037
383.58434 0.00037
383.60484 0.00037
383.62531 0.00037
383.64580 0.00037
383.66630 0.00037
383.68679 0.00037
383.70729 0.00036
383.72779 0.00037
383.74828 0.00037
383.76877 0.00038
383.78927 0.00037
383.80977 0.00037
383.83024 0.00037
383.85073 0.00037
383.87122 0.00037
383.89172 0.00037
383.91222 0.00037
383.93272 0.00037
383.95317 0.00037
383.97367 0.00037
383.99417 0.00036
384.01467 0.00036
384.03516 0.00036
384.05562 0.00036
384.07612 0.00036
384.09662 0.00036
384.11712 0.00036
384.13758 0.00036
384.15807 0.00036
384.17857 0.00036
384.19907 0.00036
384.21953 0.00035
384.24003 0.00037
384.26052 0.00037
384.28099 0.00037
384.30148 0.00037
384.32198 0.00037
384.34245 0.00036
384.36295 0.00037
384.38344 0.00036
384.40390 0.00037
384.42440 0.00037
384.44490 0.00036
384.46537 0.00037
384.48585 0.00037
384.50632 0.00036
384.52682 0.00036
384.54729 0.00036
384.56778 0.00036
384.58827 0.00036
384.60874 0.00036
384.62924 0.00035
384.64970 0.00036
384.67020 0.00036
384.69066 0.00036
384.71116 0.00035
384.73162 0.00036
384.75212 0.00035
384.77259 0.00036
384.79308 0.00035
384.81354 0.00036
384.83404 0.00036
384.85451 0.00035
384.87498 0.00036
384.89546 0.00036
384.91593 0.00036
384.93643 0.00036
384.95690 0.00036
384.97739 0.00036
384.99786 0.00036
385.01832 0.00036
385.03882 0.00035
385.05928 0.00035
385.07975 0.00036
385.10025 0.00035
385.12071 0.00036
385.14117 0.00036
385.16167 0.00036
385.18214 0.00035
385.20261 0.00035
385.22309 0.00036
385.24356 0.00036
385.26403 0.00035
385.28453 0.00036
385.30499 0.00035
385.32545 0.00035
385.34592 0.00035
385.36642 0.00036
385.38688 0.00035
385.40735 0.00035
385.42782 0.00036
385.44828 0.00036
385.46877 0.00036
385.48924 0.00035
385.50971 0.00035
385.53018 0.00036
385.55063 0.00035
385.57110 0.00035
385.59160 0.00036
385.61206 0.00035
385.63253 0.00035
385.65299 0.00035
385.67346 0.00035
385.69392 0.00035
385.71439 0.00035
385.73486 0.00035
385.75532 0.00034
385.77581 0.00034
385.79628 0.00034
385.81675 0.00034
385.83722 0.00032
385.85768 0.00032
385.87814 0.00034
385.89861 0.00034
385.91907 0.00034
385.93954 0.00034
385.96001 0.00034
385.98047 0.00034
386.00093 0.00034
386.02140 0.00034
386.04187 0.00034
386.06234 0.00034
386.08279 0.00034
386.10326 0.00034
386.12370 0.00034
386.14416 0.00034
386.16463 0.00034
386.18510 0.00035
386.20556 0.00034
386.22602 0.00034
386.24649 0.00034
386.26696 0.00034
386.28743 0.00035
386.30785 0.00035
386.32832 0.00035
386.34879 0.00034
386.36925 0.00035
386.38972 0.00034
386.41018 0.00034
386.43062 0.00034
386.45108 0.00034
386.47155 0.00034
386.49202 0.00034
386.51245 0.00034
386.53291 0.00033
386.55338 0.00034
386.57385 0.00034
386.59428 0.00034
386.61475 0.00034
386.63521 0.00033
386.65567 0.00033
386.67611 0.00033
386.69658 0.00033
386.71705 0.00033
386.73747 0.00033
386.75794 0.00034
386.77841 0.00034
386.79884 0.00034
386.81931 0.00033
386.83978 0.00033
386.86021 0.00033
386.88067 0.00033
386.90111 0.00033
386.92158 0.00033
386.94204 0.00033
386.96247 0.00033
386.98294 0.00033
387.00338 0.00033
387.02384 0.00033
387.04428 0.00033
387.06474 0.00033
387.08520 0.00032
387.10564 0.00032
387.12611 0.00032
387.14654 0.00033
387.16701 0.00033
387.18744 0.00033
387.20791 0.00033
387.22834 0.00033
387.24878 0.00034
387.26925 0.00033
387.28967 0.00033
387.31014 0.00033
387.33058 0.00033
387.35105 0.00033
387.37148 0.00034
387.39192 0.00032
387.41238 0.00033
387.43281 0.00032
387.45328 0.00032
387.47372 0.00032
387.49415 0.00033
387.51461 0.00033
387.53505 0.00033
387.55548 0.00033
387.57595 0.00033
387.59639 0.00032
387.61683 0.00033
387.63728 0.00033
387.65772 0.00033
387.67816 0.00032
387.69859 0.00032
387.71906 0.00033
387.73949 0.00033
387.75992 0.00033
387.78036 0.00032
387.80083 0.00032
387.82126 0.00032
387.84170 0.00032
387.86213 0.00032
387.88260 0.00032
387.90303 0.00032
387.92347 0.00032
387.94391 0.00032
387.96433 0.00032
387.98477 0.00032
388.00524 0.00031
388.02567 0.00032
388.04611 0.00032
388.06655 0.00031
388.08697 0.00032
388.10741 0.00031
388.12785 0.00031
388.14828 0.00031
388.16872 0.00031
388.18918 0.00031
388.20961 0.00031
388.23005 0.00031
388.25049 0.00032
388.27093 0.00032
388.29136 0.00031
388.31179 0.00032
388.33223 0.00032
388.35266 0.00031
388.37310 0.00031
388.39354 0.00031
388.41396 0.00031
388.43440 0.00031
388.45484 0.00031
388.47527 0.00031
388.49571 0.00030
388.51612 0.00031
388.53654 0.00031
388.55698 0.00031
388.57742 0.00032
388.59785 0.00031
388.61829 0.00031
388.63872 0.00031
388.65915 0.00031
388.67959 0.00031
388.70000 0.00031
388.72043 0.00031
388.74087 0.00031
388.76130 0.00031
388.78173 0.00031
388.80217 0.00031
388.82258 0.00031
388.84301 0.00031
388.86344 0.00031
388.88388 0.00031
388.90428 0.00031
388.92472 0.00031
388.94516 0.00031
388.96559 0.00031
388.98599 0.00031
389.00643 0.00032
389.02686 0.00031
389.04730 0.00032
389.06771 0.00032
389.08814 0.00031
389.10857 0.00031
389.12898 0.00031
389.14941 0.00031
389.16985 0.00031
389.19026 0.00032
389.21068 0.00031
389.23112 0.00032
389.25153 0.00031
389.27196 0.00031
389.29237 0.00031
389.31281 0.00031
389.33323 0.00031
389.35364 0.00031
389.37408 0.00031
389.39448 0.00031
389.41492 0.00031
389.43531 0.00031
389.45575 0.00031
389.47616 0.00031
389.49659 0.00031
389.51700 0.00031
389.53744 0.00031
389.55783 0.00031
389.57827 0.00031
389.59868 0.00030
389.61911 0.00031
389.63952 0.00033
389.65996 0.00031
389.68035 0.00030
389.70079 0.00031
389.72120 0.00031
389.74163 0.00030
389.76204 0.00031
389.78244 0.00031
389.80287 0.00031
389.82328 0.00031
389.84368 0.00031
389.86412 0.00031
389.88453 0.00031
389.90492 0.00031
389.92536 0.00030
389.94577 0.00030
389.96617 0.00031
389.98661 0.00031
390.00702 0.00030
390.02741 0.00030
390.04785 0.00030
390.06826 0.00031
390.08866 0.00031
390.10907 0.00030
390.12950 0.00030
390.14990 0.00030
390.17031 0.00030
390.19071 0.00030
390.21115 0.00030
390.23156 0.00030
390.25195 0.00030
390.27236 0.00030
390.29277 0.00030
390.31320 0.00030
390.33361 0.00030
390.35401 0.00030
390.37441 0.00030
390.39482 0.00032
390.41522 0.00030
390.43563 0.00030
390.45604 0.00030
390.47647 0.00030
390.49687 0.00030
390.51728 0.00030
390.53768 0.00030
390.55809 0.00029
390.57849 0.00030
390.59890 0.00030
390.61930 0.00030
390.63970 0.00029
390.66011 0.00030
390.68052 0.00030
390.70092 0.00030
390.72132 0.00030
390.74172 0.00030
390.76213 0.00030
390.78254 0.00030
390.80294 0.00030
390.82335 0.00029
390.84375 0.00030
390.86415 0.00030
390.88456 0.00029
390.90496 0.00030
390.92534 0.00029
390.94575 0.00029
390.96614 0.00030
390.98655 0.00029
391.00696 0.00030
391.02736 0.00029
391.04777 0.00029
391.06817 0.00029
391.08854 0.00029
391.10895 0.00029
391.12935 0.00029
391.14976 0.00029
391.17016 0.00029
391.19054 0.00029
391.21094 0.00030
391.23134 0.00029
391.25175 0.00029
391.27216 0.00029
391.29253 0.00029
391.31293 0.00029
391.33333 0.00029
391.35371 0.00029
391.37412 0.00029
391.39452 0.00029
391.41493 0.00029
391.43529 0.00029
391.45570 0.00029
391.47611 0.00029
391.49648 0.00029
391.51689 0.00030
391.53729 0.00029
391.55766 0.00029
391.57807 0.00028
391.59844 0.00029
391.61885 0.00029
391.63925 0.00029
391.65963 0.00030
391.68003 0.00029
391.70040 0.00029
391.72081 0.00030
391.74118 0.00029
391.76159 0.00029
391.78200 0.00029
391.80236 0.00029
391.82277 0.00030
391.84314 0.00029
391.86355 0.00029
391.88393 0.00029
391.90433 0.00029
391.92470 0.00029
391.94511 0.00029
391.96548 0.00029
391.98586 0.00029
392.00626 0.00029
392.02664 0.00030
392.04703 0.00030
392.06741 0.00029
392.08782 0.00029
392.10819 0.00029
392.12857 0.00028
392.14897 0.00028
392.16934 0.00029
392.18972 0.00029
392.21012 0.00029
392.23050 0.00029
392.25087 0.00029
392.27128 0.00029
392.29165 0.00029
392.31202 0.00029
392.33243 0.00029
392.35280 0.00029
392.37318 0.00029
392.39359 0.00029
392.41395 0.00029
392.43433 0.00029
392.45470 0.00028
392.47508 0.00029
392.49548 0.00028
392.51586 0.00029
392.53623 0.00028
392.55660 0.00028
392.57701 0.00029
392.59738 0.00029
392.61776 0.00029
392.63814 0.00028
392.65850 0.00028
392.67888 0.00028
392.69925 0.00029
392.71966 0.00028
392.74003 0.00028
392.76041 0.00028
392.78078 0.00028
392.80115 0.00028
392.82153 0.00028
392.84190 0.00028
392.86228 0.00028
392.88266 0.00028
392.90302 0.00028
392.92340 0.00028
392.94377 0.00028
392.96415 0.00028
392.98452 0.00028
393.00490 0.00028
393.02527 0.00028
393.04564 0.00028
393.06602 0.00027
393.08639 0.00025
393.10677 0.00027
393.12714 0.00028
393.14751 0.00028
393.16789 0.00028
393.18826 0.00028
393.20864 0.00028
393.22901 0.00028
393.24939 0.00028
393.26975 0.00028
393.29013 0.00028
393.31048 0.00028
393.33085 0.00027
393.35123 0.00027
393.37160 0.00028
393.39197 0.00028
393.41234 0.00028
393.43269 0.00028
393.45306 0.00028
393.47344 0.00028
393.49382 0.00028
393.51418 0.00028
393.53453 0.00028
393.55490 0.00027
393.57528 0.00028
393.59565 0.00028
393.61600 0.00028
393.63637 0.00028
393.65674 0.00027
393.67709 0.00027
393.69746 0.00028
393.71784 0.00027
393.73821 0.00028
393.75856 0.00027
393.77892 0.00027
393.79930 0.00027
393.81965 0.00027
393.84002 0.00027
393.86037 0.00027
393.88074 0.00027
393.90111 0.00027
393.92145 0.00027
393.94183 0.00027
393.96217 0.00027
393.98255 0.00028
394.00293 0.00027
394.02326 0.00027
394.04364 0.00027
394.06398 0.00027
394.08436 0.00027
394.10470 0.00027
394.12508 0.00027
394.14541 0.00026
394.16579 0.00026
394.18613 0.00026
394.20651 0.00027
394.22686 0.00027
394.24723 0.00027
394.26757 0.00027
394.28794 0.00027
394.30829 0.00027
394.32863 0.00027
394.34901 0.00027
394.36935 0.00027
394.38973 0.00027
394.41006 0.00027
394.43041 0.00027
394.45079 0.00027
394.47113 0.00027
394.49148 0.00027
394.51185 0.00027
394.53219 0.00027
394.55253 0.00027
394.57291 0.00027
394.59325 0.00027
394.61360 0.00027
394.63397 0.00027
394.65431 0.00027
394.67465 0.00027
394.69500 0.00027
394.71538 0.00027
394.73572 0.00027
394.75607 0.00027
394.77640 0.00027
394.79675 0.00027
394.81712 0.00026
394.83747 0.00027
394.85781 0.00027
394.87816 0.00027
394.89850 0.00027
394.91887 0.00027
394.93921 0.00027
394.95956 0.00026
394.97990 0.00026
395.00025 0.00027
395.02060 0.00026
395.04093 0.00026
395.06128 0.00024
395.08162 0.00027
395.10200 0.00026
395.12234 0.00026
395.14269 0.00026
395.16302 0.00026
395.18337 0.00026
395.20371 0.00026
395.22406 0.00026
395.24440 0.00026
395.26475 0.00029
395.28509 0.00027
395.30543 0.00026
395.32577 0.00026
395.34612 0.00026
395.36646 0.00026
395.38681 0.00026
395.40716 0.00026
395.42746 0.00026
395.44780 0.00026
395.46815 0.00026
395.48850 0.00026
395.50884 0.00026
395.52919 0.00026
395.54952 0.00026
395.56987 0.00026
395.59021 0.00028
395.61053 0.00026
395.63087 0.00026
395.65122 0.00026
395.67156 0.00026
395.69190 0.00026
395.71224 0.00026
395.73256 0.00026
395.75290 0.00025
395.77325 0.00026
395.79359 0.00026
395.81390 0.00026
395.83424 0.00026
395.85459 0.00026
395.87493 0.00026
395.89525 0.00025
395.91559 0.00025
395.93594 0.00026
395.95624 0.00026
395.97659 0.00026
395.99693 0.00026
396.01725 0.00026
396.03759 0.00026
396.05794 0.00026
396.07824 0.00026
396.09859 0.00026
396.11893 0.00026
396.13925 0.00026
396.15959 0.00026
396.17991 0.00026
396.20025 0.00026
396.22059 0.00026
396.24090 0.00026
396.26125 0.00026
396.28156 0.00026
396.30191 0.00026
396.32222 0.00026
396.34256 0.00026
396.36287 0.00026
396.38322 0.00025
396.40353 0.00026
396.42388 0.00026
396.44419 0.00026
396.46454 0.00027
396.48484 0.00026
396.50519 0.00026
396.52550 0.00026
396.54585 0.00025
396.56616 0.00025
396.58648 0.00025
396.60681 0.00026
396.62713 0.00025
396.64744 0.00025
396.66779 0.00025
396.68810 0.00025
396.70845 0.00026
396.72876 0.00026
396.74907 0.00025
396.76941 0.00025
396.78973 0.00026
396.81004 0.00026
396.83036 0.00025
396.85070 0.00025
396.87101 0.00026
396.89132 0.00026
396.91167 0.00026
396.93198 0.00026
396.95230 0.00026
396.97261 0.00026
396.99296 0.00026
397.01326 0.00025
397.03357 0.00026
397.05389 0.00026
397.07420 0.00025
397.09455 0.00026
397.11486 0.00026
397.13518 0.00026
397.15548 0.00025
397.17580 0.00025
397.19611 0.00025
397.21643 0.00026
397.23674 0.00025
397.25709 0.00026
397.27739 0.00026
397.29771 0.00026
397.31802 0.00026
397.33834 0.00025
397.35865 0.00026
397.37897 0.00025
397.39928 0.00026
397.41959 0.00025
397.43990 0.00026
397.46021 0.00026
397.48053 0.00026
397.50084 0.00025
397.52116 0.00025
397.54147 0.00025
397.56178 0.00025
397.58209 0.00026
397.60241 0.00025
397.62272 0.00025
397.64304 0.00026
397.66335 0.00026
397.68366 0.00025
397.70397 0.00025
397.72426 0.00025
397.74457 0.00025
397.76488 0.00025
397.78520 0.00025
397.80551 0.00025
397.82582 0.00025
397.84613 0.00026
397.86642 0.00026
397.88673 0.00025
397.90705 0.00025
397.92736 0.00025
397.94768 0.00026
397.96795 0.00025
397.98827 0.00025
398.00858 0.00026
398.02890 0.00025
398.04918 0.00025
398.06949 0.00025
398.08981 0.00025
398.11011 0.00026
398.13040 0.00025
398.15071 0.00025
398.17103 0.00026
398.19131 0.00026
398.21163 0.00025
398.23193 0.00026
398.25221 0.00026
398.27253 0.00025
398.29284 0.00025
398.31313 0.00026
398.33344 0.00026
398.35373 0.00026
398.37403 0.00026
398.39435 0.00025
398.41463 0.00026
398.43495 0.00026
398.45523 0.00026
398.47554 0.00025
398.49583 0.00025
398.51613 0.00025
398.53642 0.00026
398.55673 0.00025
398.57702 0.00025
398.59733 0.00025
398.61762 0.00026
398.63793 0.00026
398.65820 0.00026
398.67852 0.00026
398.69880 0.00026
398.71912 0.00026
398.73940 0.00026
398.75969 0.00026
398.78000 0.00026
398.80028 0.00026
398.82059 0.00026
398.84087 0.00026
398.86116 0.00026
398.88147 0.00026
398.90176 0.00026
398.92204 0.00026
398.94235 0.00026
398.96263 0.00026
398.98291 0.00026
399.00323 0.00025
399.02351 0.00026
399.04380 0.00026
399.06411 0.00026
399.08439 0.00026
399.10467 0.00026
399.12495 0.00026
399.14527 0.00026
399.16555 0.00026
399.18584 0.00026
399.20611 0.00026
399.22640 0.00026
399.24671 0.00026
399.26700 0.00026
399.28728 0.00026
399.30756 0.00026
399.32785 0.00026
399.34812 0.00026
399.36844 0.00026
399.38872 0.00026
399.40900 0.00026
399.42929 0.00027
399.44957 0.00026
399.46986 0.00026
399.49013 0.00026
399.51042 0.00026
399.53070 0.00026
399.55098 0.00026
399.57127 0.00026
399.59155 0.00026
399.61184 0.00026
399.63211 0.00026
399.65240 0.00026
399.67268 0.00026
399.69296 0.00026
399.71325 0.00026
399.73353 0.00026
399.75382 0.00027
399.77410 0.00026
399.79437 0.00026
399.81466 0.00026
399.83494 0.00026
399.85523 0.00026
399.87551 0.00026
399.89580 0.00026
399.91608 0.00026
399.93632 0.00027
399.95661 0.00027
399.97689 0.00027
399.99718 0.00026
400.01746 0.00026
400.03774 0.00027
400.05800 0.00026
400.07827 0.00026
400.09856 0.00026
400.11884 0.00026
400.13912 0.00026
400.15938 0.00026
400.17966 0.00026
400.19995 0.00027
400.22022 0.00026
400.24047 0.00026
400.26076 0.00027
400.28104 0.00026
400.30133 0.00026
400.32158 0.00026
400.34187 0.00027
400.36214 0.00026
400.38239 0.00026
400.40268 0.00026
400.42296 0.00027
400.44321 0.00026
400.46350 0.00027
400.48375 0.00027
400.50403 0.00026
400.52431 0.00027
400.54456 0.00027
400.56485 0.00027
400.58510 0.00026
400.60539 0.00026
400.62564 0.00026
400.64591 0.00026
400.66617 0.00026
400.68645 0.00027
400.70674 0.00027
400.72699 0.00027
400.74727 0.00027
400.76753 0.00025
400.78777 0.00027
400.80806 0.00027
400.82831 0.00027
400.84859 0.00027
400.86885 0.00027
400.88913 0.00027
400.90939 0.00027
400.92967 0.00027
400.94991 0.00027
400.97017 0.00027
400.99045 0.00027
401.01070 0.00027
401.03096 0.00027
401.05124 0.00027
401.07150 0.00027
401.09174 0.00027
401.11202 0.00027
401.13228 0.00027
401.15253 0.00027
401.17282 0.00027
401.19307 0.00027
401.21332 0.00027
401.23357 0.00027
401.25385 0.00027
401.27410 0.00028
401.29436 0.00029
401.31461 0.00027
401.33490 0.00027
401.35515 0.00027
401.37540 0.00027
401.39565 0.00027
401.41590 0.00027
401.43619 0.00027
401.45644 0.00027
401.47669 0.00027
401.49695 0.00027
401.51720 0.00027
401.53744 0.00027
401.55770 0.00027
401.57795 0.00027
401.59824 0.00027
401.61849 0.00027
401.63874 0.00027
401.65900 0.00027
401.67924 0.00028
401.69949 0.00027
401.71975 0.00028
401.74000 0.00028
401.76025 0.00028
401.78051 0.00028
401.80076 0.00027
401.82102 0.00028
401.84126 0.00027
401.86151 0.00027
401.88177 0.00027
401.90202 0.00028
401.92227 0.00028
401.94253 0.00028
401.96278 0.00028
401.98299 0.00027
402.00325 0.00028
402.02350 0.00027
402.04376 0.00028
402.06401 0.00028
402.08426 0.00027
402.10452 0.00027
402.12477 0.00027
402.14498 0.00028
402.16524 0.00027
402.18549 0.00028
402.20574 0.00027
402.22600 0.00028
402.24622 0.00028
402.26647 0.00028
402.28672 0.00028
402.30697 0.00027
402.32720 0.00028
402.34745 0.00027
402.36770 0.00028
402.38796 0.00028
402.40818 0.00027
402.42843 0.00023
402.44868 0.00026
402.46890 0.00028
402.48915 0.00028
402.50941 0.00028
402.52963 0.00028
402.54988 0.00027
402.57014 0.00028
402.59035 0.00028
402.61060 0.00028
402.63083 0.00028
402.65108 0.00028
402.67134 0.00028
402.69156 0.00027
402.71181 0.00027
402.73204 0.00028
402.75228 0.00029
402.77250 0.00029
402.79276 0.00029
402.81298 0.00029
402.83323 0.00028
402.85346 0.00028
402.87371 0.00028
402.89392 0.00028
402.91418 0.00028
402.93440 0.00028
402.95465 0.00028
402.97488 0.00028
402.99513 0.00028
403.01535 0.00028
403.03561 0.00028
403.05582 0.00028
403.07604 0.00028
403.09630 0.00028
403.11652 0.00028
403.13674 0.00028
403.15700 0.00028
403.17722 0.00029
403.19744 0.00028
403.21769 0.00028
403.23791 0.00028
403.25813 0.00028
403.27839 0.00028
403.29861 0.00028
403.31883 0.00028
403.33906 0.00028
403.35930 0.00028
403.37952 0.00028
403.39975 0.00028
403.41997 0.00028
403.44022 0.00028
403.46045 0.00028
403.48067 0.00028
403.50089 0.00028
403.52111 0.00028
403.54136 0.00027
403.56158 0.00027
403.58181 0.00028
403.60203 0.00028
403.62225 0.00028
403.64247 0.00028
403.66270 0.00028
403.68291 0.00028
403.70316 0.00028
403.72339 0.00028
403.74361 0.00028
403.76383 0.00028
403.78406 0.00028
403.80428 0.00028
403.82450 0.00028
403.84472 0.00028
403.86494 0.00028
403.88516 0.00028
403.90539 0.00028
403.92561 0.00028
403.94583 0.00028
403.96606 0.00028
403.98628 0.00028
404.00649 0.00028
404.02672 0.00028
404.04694 0.00028
404.06716 0.00028
404.08735 0.00028
404.10758 0.00028
404.12780 0.00028
404.14802 0.00028
404.16824 0.00028
404.18846 0.00028
404.20868 0.00028
404.22888 0.00028
404.24910 0.00028
404.26932 0.00028
404.28955 0.00028
404.30976 0.00028
404.32995 0.00028
404.35017 0.00028
404.37040 0.00028
404.39062 0.00028
404.41084 0.00028
404.43104 0.00028
404.45126 0.00028
404.47147 0.00028
404.49167 0.00028
404.51189 0.00028
404.53211 0.00028
404.55233 0.00028
404.57253 0.00028
404.59275 0.00028
404.61294 0.00028
404.63316 0.00028
404.65338 0.00028
404.67357 0.00028
404.69380 0.00028
404.71402 0.00028
404.73421 0.00028
404.75443 0.00028
404.77463 0.00028
404.79484 0.00028
404.81503 0.00028
404.83526 0.00028
404.85548 0.00028
404.87567 0.00028
404.89589 0.00028
404.91609 0.00028
404.93631 0.00028
404.95649 0.00028
404.97672 0.00028
404.99691 0.00028
405.01710 0.00028
405.03732 0.00028
405.05752 0.00028
405.07774 0.00028
405.09793 0.00028
405.11816 0.00028
405.13834 0.00028
405.15853 0.00028
405.17875 0.00028
405.19895 0.00027
405.21914 0.00027
405.23936 0.00028
405.25956 0.00028
405.27975 0.00028
405.29996 0.00028
405.32015 0.00028
405.34035 0.00028
405.36057 0.00028
405.38076 0.00028
405.40096 0.00028
405.42115 0.00028
405.44137 0.00028
405.46155 0.00028
405.48175 0.00028
405.50194 0.00028
405.52216 0.00028
405.54235 0.00029
405.56255 0.00028
405.58274 0.00028
405.60293 0.00028
405.62315 0.00028
405.64334 0.00027
405.66353 0.00028
405.68372 0.00028
405.70392 0.00028
405.72411 0.00028
405.74430 0.00028
405.76449 0.00028
405.78468 0.00027
405.80490 0.00024
405.82509 0.00027
405.84529 0.00027
405.86548 0.00027
405.88567 0.00027
405.90586 0.00028
405.92606 0.00027
405.94625 0.00027
405.96643 0.00027
405.98662 0.00028
406.00682 0.00028
406.02701 0.00027
406.04720 0.00027
406.06739 0.00028
406.08756 0.00027
406.10775 0.00028
406.12793 0.00028
406.14812 0.00028
406.16832 0.00028
406.18851 0.00028
406.20870 0.00028
406.22889 0.00028
406.24909 0.00028
406.26925 0.00028
406.28943 0.00028
406.30962 0.00028
406.32982 0.00028
406.35001 0.00028
406.37017 0.00028
406.39036 0.00028
406.41056 0.00028
406.43075 0.00028
406.45094 0.00028
406.47109 0.00028
406.49129 0.00028
406.51148 0.00028
406.53164 0.00028
406.55183 0.00027
406.57203 0.00028
406.59222 0.00028
406.61238 0.00028
406.63256 0.00028
406.65276 0.00028
406.67292 0.00028
406.69311 0.00028
406.71327 0.00027
406.73347 0.00028
406.75366 0.00028
406.77382 0.00028
406.79401 0.00028
406.81417 0.00028
406.83436 0.00028
406.85455 0.00028
406.87471 0.00028
406.89491 0.00028
406.91507 0.00028
406.93526 0.00028
406.95542 0.00028
406.97561 0.00028
406.99577 0.00028
407.01596 0.00028
407.03612 0.00028
407.05632 0.00028
407.07648 0.00028
407.09664 0.00028
407.11683 0.00028
407.13699 0.00028
407.15718 0.00029
407.17734 0.00028
407.19750 0.00028
407.21769 0.00028
407.23786 0.00028
407.25805 0.00028
407.27821 0.00028
407.29837 0.00028
407.31856 0.00028
407.33872 0.00028
407.35888 0.00028
407.37907 0.00028
407.39923 0.00028
407.41940 0.00028
407.43956 0.00028
407.45975 0.00028
407.47991 0.00028
407.50007 0.00028
407.52023 0.00028
407.54042 0.00028
407.56058 0.00028
407.58074 0.00028
407.60091 0.00028
407.62107 0.00028
407.64123 0.00028
407.66142 0.00028
407.68158 0.00028
407.70174 0.00028
407.72190 0.00028
407.74206 0.00028
407.76222 0.00028
407.78239 0.00028
407.80255 0.00028
407.82274 0.00028
407.84289 0.00028
407.86306 0.00028
407.88322 0.00028
407.90338 0.00028
407.92354 0.00028
407.94370 0.00028
407.96387 0.00028
407.98403 0.00028
408.00419 0.00028
408.02434 0.00028
408.04450 0.00028
408.06467 0.00028
408.08483 0.00028
408.10499 0.00028
408.12512 0.00028
408.14528 0.00028
408.16545 0.00028
408.18561 0.00028
408.20576 0.00028
408.22592 0.00028
408.24609 0.00028
408.26625 0.00028
408.28641 0.00028
408.30654 0.00028
408.32670 0.00029
408.34687 0.00028
408.36703 0.00029
408.38718 0.00028
408.40731 0.00028
408.42747 0.00028
408.44764 0.00029
408.46780 0.00028
408.48793 0.00028
408.50809 0.00028
408.52825 0.00028
408.54842 0.00028
408.56854 0.00028
408.58870 0.00028
408.60886 0.00028
408.62899 0.00028
408.64916 0.00028
408.66932 0.00028
408.68945 0.00028
408.70961 0.00028
408.72977 0.00027
408.74989 0.00028
408.77006 0.00028
408.79019 0.00028
408.81035 0.00028
408.83051 0.00028
408.85064 0.00028
408.87081 0.00028
408.89094 0.00027
408.91110 0.00028
408.93122 0.00028
408.95138 0.00027
408.97152 0.00027
408.99168 0.00027
409.01181 0.00027
409.03197 0.00027
409.05210 0.00027
409.07227 0.00027
409.09240 0.00027
409.11255 0.00027
409.13268 0.00027
409.15281 0.00027
409.17297 0.00027
409.19311 0.00026
409.21327 0.00027
409.23340 0.00026
409.25353 0.00024
409.27369 0.00026
409.29381 0.00026
409.31395 0.00026
409.33411 0.00026
409.35424 0.00026
409.37437 0.00026
409.39453 0.00026
409.41467 0.00026
409.43480 0.00026
409.45493 0.00026
409.47508 0.00026
409.49521 0.00026
409.51534 0.00025
409.53548 0.00026
409.55561 0.00026
409.57577 0.00025
409.59590 0.00025
409.61603 0.00026
409.63616 0.00025
409.65630 0.00025
409.67645 0.00025
409.69658 0.00025
409.71671 0.00025
409.73684 0.00025
409.75697 0.00023
409.77711 0.00022
409.79724 0.00024
409.81737 0.00024
409.83750 0.00024
409.85762 0.00025
409.87775 0.00026
409.89789 0.00024
409.91805 0.00024
409.93818 0.00024
409.95831 0.00024
409.97844 0.00024
409.99857 0.00024
410.01871 0.00024
410.03880 0.00024
410.05893 0.00023
410.07906 0.00024
410.09919 0.00023
410.11932 0.00023
410.13945 0.00022
410.15959 0.00021
410.17972 0.00023
410.19985 0.00023
410.21998 0.00023
410.24010 0.00023
410.26020 0.00022
410.28034 0.00022
410.30047 0.00023
410.32060 0.00022
410.34073 0.00022
410.36086 0.00022
410.38096 0.00022
410.40109 0.00022
410.42122 0.00022
410.44135 0.00022
410.46145 0.00021
410.48158 0.00021
410.50171 0.00021
410.52184 0.00021
410.54194 0.00021
410.56208 0.00020
410.58221 0.00020
410.60231 0.00020
410.62243 0.00020
410.64256 0.00020
410.66266 0.00020
410.68279 0.00019
410.70293 0.00019
410.72303 0.00019
410.74316 0.00019
