Date and Time:                Wed May 25 12:27:40.000 2022
Software Version:             4.31.30023.0
Temperature (C):              -40
Model:                        DU940P_BU2
Data Type:                    Counts
Acquisition Mode:             Single Scan
Trigger Mode:                 Internal
Exposure Time (secs):         0.8
Readout Mode:                 Full Vertical Binning
Horizontal binning:           1
Extended Dynamic Range:       off
Horizontally flipped:         false
Vertical Shift Speed (usecs): 14.51
Pixel Readout Rate (MHz):     3
Baseline Clamp:               ON
Clock Amplitude:              Normal
Output Amplifier:             High Capacity
Serial Number:                23634
Pre-Amplifier Gain:           1.000000
Spurious Noise Filter Mode:   No Filter
Photon counted:               false
Data Averaging Filter Mode:   No Filter
SR500i:
Serial Number:                
Wavelength (nm):              272
Grating Groove Density (l/mm):2400
Grating Blaze:                BH
Output Flipper Port:          Direct
Accessory Output Port 1:      Off
Accessory Output Port 2:      Off
Accessory Output Port 3:      Off
Accessory Input Port:         On



262.02127	323
262.0311	315
262.04095	321
262.05078	319
262.06061	319
262.07043	320
262.08026	319
262.09009	320
262.09991	317
262.10974	320
262.11957	316
262.12939	318
262.13922	320
262.14905	325
262.15887	314
262.1687	313
262.17853	324
262.18835	315
262.19818	317
262.20801	323
262.21783	316
262.22766	323
262.23749	320
262.24731	316
262.25714	320
262.26697	317
262.27676	324
262.28659	318
262.29642	320
262.30624	317
262.31607	326
262.3259	324
262.33572	316
262.34555	320
262.35538	307
262.3652	320
262.37503	322
262.38486	320
262.39465	320
262.40448	325
262.41431	313
262.42413	319
262.43396	317
262.44379	321
262.45361	324
262.46344	324
262.47324	318
262.48306	317
262.49289	319
262.50272	326
262.51254	321
262.52237	324
262.53217	323
262.54199	322
262.55182	325
262.56165	317
262.57147	322
262.5813	326
262.59109	320
262.60092	325
262.61075	320
262.62057	316
262.63037	319
262.6402	325
262.65002	326
262.65985	319
262.66968	329
262.67947	322
262.6893	317
262.69913	323
262.70895	318
262.71875	322
262.72858	327
262.7384	324
262.7482	325
262.75803	328
262.76785	324
262.77768	323
262.78748	316
262.7973	321
262.80713	319
262.81693	315
262.82675	316
262.83658	314
262.84637	323
262.8562	321
262.86603	320
262.87585	315
262.88565	323
262.89548	324
262.90527	318
262.9151	322
262.92493	321
262.93472	319
262.94455	311
262.95438	319
262.96417	315
262.974	321
262.98383	322
262.99362	314
263.00345	317
263.01324	319
263.02307	321
263.0329	327
263.04269	327
263.05252	323
263.06232	325
263.07214	325
263.08194	324
263.09177	324
263.10159	322
263.11139	323
263.12122	320
263.13101	316
263.14084	323
263.15063	319
263.16046	323
263.17026	322
263.18008	326
263.18988	323
263.19971	323
263.2095	321
263.21933	320
263.22913	321
263.23895	319
263.24875	323
263.25858	321
263.26837	321
263.2782	321
263.28799	319
263.29782	320
263.30762	324
263.31744	318
263.32724	326
263.33707	328
263.34686	322
263.35669	321
263.36649	323
263.37628	317
263.38611	321
263.3959	323
263.40573	318
263.41553	323
263.42535	319
263.43515	326
263.44495	320
263.45477	318
263.46457	317
263.4744	322
263.48419	325
263.49399	318
263.50381	330
263.51361	319
263.52341	325
263.53323	323
263.54303	323
263.55283	319
263.56265	323
263.57245	320
263.58228	322
263.59207	313
263.60187	325
263.61169	322
263.62149	326
263.63129	323
263.64108	322
263.65091	325
263.66071	324
263.6705	317
263.68033	323
263.69012	323
263.69992	320
263.70972	321
263.71954	324
263.72934	316
263.73914	327
263.74896	326
263.75876	322
263.76855	320
263.77835	327
263.78818	324
263.79797	319
263.80777	318
263.81757	324
263.82736	313
263.83719	323
263.84698	330
263.85678	319
263.86658	326
263.87637	323
263.8862	327
263.896	325
263.90579	324
263.91559	317
263.92538	318
263.93521	317
263.94501	317
263.9548	322
263.9646	322
263.9744	324
263.98419	321
263.99399	328
264.00381	318
264.01361	321
264.02341	323
264.0332	325
264.043	326
264.0528	321
264.06259	326
264.07239	319
264.08221	326
264.09201	326
264.10181	329
264.1116	328
264.1214	324
264.1312	324
264.14099	325
264.15079	322
264.16058	329
264.17038	333
264.18018	319
264.18997	328
264.19977	325
264.20956	326
264.21936	321
264.22916	319
264.23898	322
264.24878	324
264.25858	321
264.26837	323
264.27817	323
264.28796	322
264.29776	327
264.30756	329
264.31735	324
264.32715	324
264.33694	324
264.34671	329
264.35651	321
264.3663	329
264.3761	323
264.38589	324
264.39569	325
264.40549	332
264.41528	322
264.42508	331
264.43488	330
264.44467	321
264.45447	323
264.46426	328
264.47406	324
264.48386	323
264.49365	329
264.50342	326
264.51321	327
264.52301	326
264.53281	324
264.5426	324
264.5524	329
264.56219	325
264.57199	327
264.58176	323
264.59155	332
264.60135	329
264.61115	328
264.62094	327
264.63074	325
264.64053	329
264.6503	322
264.6601	327
264.66989	326
264.67969	332
264.68948	332
264.69925	327
264.70905	328
264.71884	329
264.72864	326
264.73843	325
264.7482	324
264.758	322
264.76779	332
264.77759	326
264.78735	325
264.79715	327
264.80695	326
264.81674	324
264.82651	331
264.8363	325
264.8461	334
264.8559	323
264.86566	327
264.87546	328
264.88525	330
264.89505	330
264.90482	337
264.91461	323
264.92441	330
264.93417	328
264.94397	329
264.95377	331
264.96353	333
264.97333	325
264.98312	328
264.99289	330
265.00269	330
265.01248	326
265.02225	325
265.03204	333
265.04184	325
265.05161	323
265.0614	333
265.0712	324
265.08096	331
265.09076	327
265.10052	331
265.11032	327
265.12012	332
265.12988	330
265.13968	329
265.14944	332
265.15924	326
265.16904	329
265.1788	330
265.1886	324
265.19836	330
265.20816	323
265.21793	328
265.22772	337
265.23749	327
265.24728	321
265.25708	330
265.26685	327
265.27664	326
265.28641	331
265.2962	327
265.30597	329
265.31577	326
265.32553	326
265.33533	333
265.34509	328
265.35489	328
265.36465	335
265.37445	332
265.38422	332
265.39401	331
265.40378	334
265.41354	329
265.42334	332
265.43311	333
265.4429	333
265.45267	326
265.46246	331
265.47223	333
265.48203	331
265.49179	324
265.50156	330
265.51135	333
265.52112	334
265.53091	330
265.54068	333
265.55045	324
265.56024	328
265.57001	337
265.5798	331
265.58957	333
265.59933	337
265.60913	333
265.6189	341
265.62866	326
265.63846	334
265.64822	333
265.65799	330
265.66779	336
265.67755	330
265.68732	333
265.69711	331
265.70688	332
265.71664	335
265.72644	334
265.73621	328
265.74597	332
265.75577	338
265.76553	331
265.7753	335
265.78506	336
265.79486	328
265.80463	333
265.81439	334
265.82419	336
265.83395	337
265.84372	336
265.85349	339
265.86325	335
265.87305	329
265.88281	337
265.89258	329
265.90234	339
265.91214	332
265.92191	335
265.93167	332
265.94144	335
265.9512	337
265.961	331
265.97076	330
265.98053	328
265.9903	332
266.00006	328
266.00986	339
266.01962	330
266.02939	330
266.03915	334
266.04892	337
266.05869	337
266.06845	333
266.07825	340
266.08801	338
266.09778	336
266.10754	337
266.11731	335
266.12708	337
266.13684	340
266.14661	334
266.15637	341
266.16617	340
266.17593	338
266.1857	330
266.19547	338
266.20523	340
266.215	337
266.22476	335
266.23453	340
266.24429	336
266.25406	331
266.26382	337
266.27359	341
266.28336	338
266.29312	336
266.30289	332
266.31265	337
266.32242	339
266.33218	340
266.34195	341
266.35172	342
266.36148	338
266.37125	340
266.38101	341
266.39078	338
266.40054	342
266.41031	338
266.42007	341
266.42984	340
266.43961	341
266.44937	342
266.45914	334
266.4689	339
266.47867	341
266.48843	341
266.4982	338
266.50797	346
266.51773	341
266.5275	347
266.53726	342
266.547	345
266.55676	343
266.56653	339
266.57629	341
266.58606	346
266.59583	338
266.60559	345
266.61536	339
266.62509	347
266.63486	346
266.64462	340
266.65439	341
266.66415	348
266.67392	345
266.68369	341
266.69342	345
266.70319	342
266.71295	338
266.72272	349
266.73248	342
266.74222	352
266.75198	346
266.76175	348
266.77151	345
266.78128	346
266.79102	344
266.80078	343
266.81055	350
266.82031	350
266.83008	350
266.83981	353
266.84958	349
266.85934	346
266.86911	348
266.87885	346
266.88861	355
266.89838	345
266.90811	347
266.91788	354
266.92764	345
266.93741	354
266.94714	346
266.95691	353
266.96667	347
266.97641	350
266.98618	347
266.99594	346
267.00568	350
267.01544	344
267.02521	354
267.03494	357
267.04471	352
267.05447	349
267.06421	349
267.07397	350
267.08374	351
267.09348	357
267.10324	342
267.11301	355
267.12274	352
267.13251	361
267.14224	361
267.15201	360
267.16177	350
267.17151	350
267.18127	348
267.19101	363
267.20078	346
267.21054	358
267.22028	352
267.23004	359
267.23978	361
267.24954	357
267.25928	350
267.26904	355
267.27878	354
267.28854	352
267.29828	358
267.30804	366
267.31781	361
267.32755	357
267.33731	356
267.34705	367
267.35681	356
267.36655	362
267.37631	359
267.38605	362
267.39578	364
267.40555	359
267.41528	354
267.42505	367
267.43478	365
267.44455	358
267.45428	360
267.46405	353
267.47379	361
267.48355	365
267.49329	367
267.50302	358
267.51279	359
267.52252	366
267.53229	356
267.54202	368
267.55179	361
267.56152	374
267.57126	357
267.58102	360
267.59076	363
267.60049	359
267.61026	365
267.62	363
267.62976	362
267.6395	367
267.64923	370
267.659	373
267.66873	366
267.67847	368
267.68823	369
267.69797	369
267.7077	373
267.71747	373
267.7272	367
267.73694	371
267.7467	369
267.75644	378
267.76617	371
267.77591	369
267.78568	374
267.79541	375
267.80515	381
267.81491	376
267.82465	378
267.83438	379
267.84412	374
267.85388	376
267.86362	377
267.87335	383
267.88309	376
267.89285	379
267.90259	370
267.91232	376
267.92206	384
267.93179	381
267.94156	374
267.95129	387
267.96103	385
267.97076	385
267.9805	384
267.99026	380
268	381
268.00974	386
268.01947	381
268.02921	390
268.03894	386
268.04871	390
268.05844	390
268.06818	390
268.07791	392
268.08765	385
268.09738	387
268.10712	388
268.11685	391
268.12662	397
268.13635	386
268.14609	390
268.15582	393
268.16556	400
268.17529	398
268.18503	396
268.19476	398
268.2045	394
268.21423	397
268.22397	403
268.2337	392
268.24347	400
268.2532	397
268.26294	395
268.27267	402
268.28241	403
268.29214	400
268.30188	403
268.31161	407
268.32135	402
268.33109	400
268.34082	402
268.35056	401
268.36029	407
268.37003	403
268.37976	408
268.3895	409
268.39923	414
268.40897	408
268.4187	408
268.42844	416
268.43817	413
268.44788	412
268.45761	418
268.46735	417
268.47708	413
268.48682	420
268.49655	419
268.50629	425
268.51602	418
268.52576	424
268.53549	416
268.54523	424
268.55496	423
268.56467	427
268.5744	436
268.58414	426
268.59387	431
268.60361	428
268.61334	432
268.62308	430
268.63281	426
268.64252	430
268.65225	428
268.66199	434
268.67172	436
268.68146	441
268.69119	436
268.7009	437
268.71063	437
268.72037	443
268.7301	449
268.73984	445
268.74954	457
268.75928	451
268.76901	453
268.77875	453
268.78848	454
268.79819	456
268.80792	448
268.81766	453
268.82739	449
268.8371	464
268.84683	462
268.85657	462
268.8663	472
268.87601	471
268.88574	474
268.89548	468
268.90518	468
268.91492	473
268.92465	479
268.93439	477
268.94409	481
268.95383	482
268.96356	486
268.97327	477
268.983	485
268.99274	492
269.00244	488
269.01218	495
269.02191	508
269.03162	500
269.04135	501
269.05109	502
269.06079	506
269.07053	507
269.08023	509
269.08997	521
269.0997	513
269.10941	510
269.11914	521
269.12885	516
269.13858	522
269.14832	533
269.15802	531
269.16776	540
269.17746	538
269.18719	550
269.1969	540
269.20663	540
269.21637	548
269.22607	562
269.23581	567
269.24551	564
269.25525	570
269.26495	553
269.27469	562
269.28439	573
269.29413	567
269.30383	583
269.31357	588
269.32327	586
269.33301	586
269.34271	598
269.35245	613
269.36215	609
269.37189	614
269.38159	608
269.39133	614
269.40103	631
269.41077	618
269.42047	634
269.43021	636
269.43991	638
269.44962	647
269.45935	656
269.46906	668
269.47879	666
269.48849	673
269.4982	673
269.50793	671
269.51764	702
269.52737	688
269.53708	690
269.54678	703
269.55652	707
269.56622	721
269.57596	709
269.58566	718
269.59537	727
269.6051	739
269.61481	747
269.62451	763
269.63425	762
269.64395	772
269.65366	773
269.66339	781
269.6731	784
269.6828	802
269.69254	805
269.70224	817
269.71194	810
269.72165	828
269.73138	838
269.74109	838
269.75079	842
269.76053	863
269.77023	864
269.77994	871
269.78964	883
269.79938	886
269.80908	891
269.81879	904
269.82849	918
269.83823	932
269.84793	939
269.85764	958
269.86734	957
269.87704	959
269.88678	979
269.89648	988
269.90619	1004
269.91589	1011
269.9256	1024
269.93533	1054
269.94504	1057
269.95474	1060
269.96445	1071
269.97415	1083
269.98386	1090
269.99359	1104
270.0033	1121
270.013	1142
270.02271	1150
270.03241	1146
270.04211	1173
270.05182	1178
270.06152	1188
270.07126	1206
270.08096	1226
270.09067	1226
270.10037	1233
270.11008	1261
270.11978	1275
270.12949	1278
270.13919	1296
270.1489	1342
270.1586	1330
270.1683	1350
270.17801	1362
270.18771	1366
270.19742	1378
270.20715	1371
270.21686	1394
270.22656	1413
270.23627	1425
270.24597	1436
270.25568	1452
270.26538	1462
270.27509	1488
270.28479	1501
270.29449	1526
270.3042	1539
270.3139	1567
270.32361	1557
270.33331	1614
270.34299	1614
270.35269	1654
270.3624	1703
270.3721	1712
270.38181	1727
270.39151	1740
270.40121	1776
270.41092	1771
270.42062	1802
270.43033	1834
270.44003	1857
270.44974	1876
270.45944	1917
270.46915	1919
270.47882	1941
270.48853	1982
270.49823	2021
270.50793	2039
270.51764	2118
270.52734	2104
270.53705	2130
270.54675	2167
270.55643	2199
270.56613	2260
270.57584	2276
270.58554	2301
270.59525	2376
270.60495	2414
270.61462	2432
270.62433	2461
270.63403	2487
270.64374	2542
270.65344	2604
270.66312	2651
270.67282	2687
270.68253	2689
270.69223	2766
270.70193	2777
270.71161	2846
270.72131	2897
270.73102	2933
270.74072	2980
270.7504	3077
270.7601	3094
270.76981	3157
270.77951	3212
270.78918	3291
270.79889	3344
270.80859	3439
270.8183	3505
270.82797	3539
270.83768	3655
270.84738	3707
270.85706	3749
270.86676	3780
270.87646	3852
270.88614	3940
270.89584	4029
270.90555	4125
270.91522	4218
270.92493	4316
270.93463	4432
270.94431	4463
270.95401	4551
270.96371	4608
270.97339	4692
270.98309	4789
270.99277	4881
271.00247	4961
271.01218	5048
271.02185	5092
271.03156	5184
271.04126	5329
271.05093	5474
271.06064	5545
271.07031	5698
271.08002	5771
271.08969	5851
271.0994	5943
271.1091	6110
271.11877	6262
271.12848	6359
271.13815	6548
271.14786	6648
271.15753	6780
271.16724	6895
271.17691	7018
271.18661	7136
271.19629	7285
271.20599	7398
271.21567	7540
271.22537	7634
271.23505	7774
271.24475	7937
271.25443	8081
271.26413	8195
271.2738	8247
271.28351	8393
271.29318	8616
271.30289	8722
271.31256	8884
271.32227	9000
271.33194	9199
271.34161	9319
271.35132	9584
271.36099	9732
271.3707	9877
271.38037	10000
271.39008	10213
271.39975	10352
271.40942	10509
271.41913	10681
271.4288	10863
271.43851	10919
271.44818	11066
271.45786	11165
271.46756	11340
271.47723	11538
271.48691	11646
271.49661	11773
271.50629	11976
271.51596	12022
271.52567	12163
271.53534	12279
271.54501	12454
271.55472	12624
271.56439	12832
271.57407	13058
271.58377	13032
271.59344	13309
271.60312	13486
271.61282	13600
271.6225	13776
271.63217	13900
271.64185	14019
271.65155	14218
271.66122	14415
271.6709	14606
271.68057	14744
271.69028	14900
271.69995	15102
271.70963	15359
271.7193	15564
271.729	15721
271.73868	15825
271.74835	15908
271.75803	16102
271.7677	16290
271.7774	16534
271.78708	16840
271.79675	17164
271.80643	17315
271.8161	17559
271.82581	17905
271.83548	18127
271.84515	18224
271.85483	18343
271.8645	18465
271.87418	18609
271.88388	18798
271.89355	18917
271.90323	19188
271.9129	19320
271.92258	19407
271.93225	19556
271.94193	19878
271.9516	20096
271.9613	20249
271.97098	20335
271.98065	20520
271.99033	20551
272	20716
272.00967	20888
272.01935	21106
272.02902	21302
272.0387	21586
272.04837	21760
272.05804	21913
272.06772	22037
272.07739	22124
272.08707	22271
272.09674	22480
272.10641	22569
272.11609	22721
272.12576	22920
272.13544	23158
272.14511	23417
272.15479	23665
272.16446	23928
272.17413	24078
272.18381	24098
272.19348	24035
272.20316	24108
272.21283	24339
272.2225	24412
272.23218	24589
272.24185	24961
272.25153	25242
272.2612	25290
272.27087	25266
272.28055	25398
272.29022	25513
272.2999	25765
272.30957	26021
272.31924	26379
272.32892	26621
272.33856	26682
272.34824	26763
272.35791	27020
272.36758	27333
272.37726	27374
272.38693	27522
272.39661	27700
272.40628	27878
272.41592	27897
272.4256	27873
272.43527	28003
272.44495	28129
272.45462	28250
272.46429	28190
272.47394	28449
272.48361	28751
272.49329	29070
272.50296	29093
272.51263	29105
272.52228	29198
272.53195	29467
272.54163	29577
272.5513	29717
272.56097	30012
272.57062	30142
272.58029	30092
272.58997	30088
272.59964	30087
272.60928	30017
272.61896	30138
272.62863	30415
272.63831	30511
272.64795	30278
272.65762	30400
272.6673	30468
272.67697	30695
272.68661	30741
272.69629	30771
272.70596	30592
272.71561	30821
272.72528	30674
272.73495	30576
272.7446	30421
272.75427	30474
272.76395	30549
272.77359	30628
272.78326	30813
272.79294	30945
272.80258	31024
272.81226	31060
272.82193	30902
272.83157	30820
272.84125	30836
272.85089	30677
272.86057	30450
272.87024	30441
272.87988	30356
272.88956	30255
272.89923	30419
272.90887	30592
272.91855	30602
272.92819	30441
272.93787	30263
272.94751	30323
272.95718	30263
272.96686	30444
272.9765	30771
272.98618	31028
272.99582	31135
273.00549	31048
273.01514	31036
273.02481	31190
273.03445	31072
273.04413	30972
273.05377	30889
273.06345	30893
273.07309	30876
273.08276	30696
273.09241	30509
273.10208	30384
273.11172	30405
273.1214	30412
273.13104	30579
273.14072	30834
273.15036	30854
273.16003	30724
273.16968	30687
273.17932	30662
273.189	30909
273.19864	30884
273.20831	31075
273.21796	31138
273.2276	31209
273.23727	31032
273.24692	31034
273.25659	31048
273.26624	30840
273.27588	30848
273.28555	30787
273.2952	30781
273.30487	30692
273.31451	30736
273.32416	30631
273.33383	30667
273.34348	30596
273.35312	30478
273.36279	30442
273.37244	30477
273.38208	30369
273.39175	30200
273.4014	30203
273.41104	30275
273.42072	30498
273.43036	30603
273.44	30692
273.44968	30826
273.45932	30733
273.46896	30764
273.47861	30697
273.48828	30497
273.49792	30467
273.50757	30530
273.51721	30485
273.52689	30620
273.53653	30587
273.54617	30495
273.55582	30467
273.56549	30325
273.57513	30206
273.58478	30152
273.59442	30053
273.60406	30044
273.61374	29999
273.62338	30084
273.63303	29748
273.64267	29649
273.65231	29520
273.66199	29515
273.67163	29824
273.68127	29980
273.69092	29890
273.70056	29869
273.71021	29731
273.71985	29563
273.72952	29589
273.73917	29720
273.74881	29932
273.75845	30248
273.7681	30195
273.77774	30130
273.78738	30147
273.79703	30306
273.80667	30185
273.81635	30215
273.82599	30295
273.83563	30363
273.84528	30265
273.85492	30071
273.86456	30147
273.87421	30084
273.88385	30000
273.89349	29880
273.90314	29749
273.91278	29665
273.92242	29723
273.93207	29748
273.94171	29815
273.95135	29727
273.961	29599
273.97064	29677
273.98029	30021
273.98993	30016
273.99957	29983
274.00922	29942
274.01886	29951
274.0285	29876
274.03815	29806
274.04779	29798
274.05743	29915
274.06708	29789
274.07672	29670
274.08636	29474
274.09601	29512
274.10565	29766
274.1153	29724
274.12491	29865
274.13455	29819
274.1442	29713
274.15384	29487
274.16348	29409
274.17313	29434
274.18277	29474
274.19241	29643
274.20206	29833
274.21167	29906
274.22131	29831
274.23096	29649
274.2406	29654
274.25024	29562
274.25989	29546
274.26953	29644
274.27914	29750
274.28879	29858
274.29843	29720
274.30807	29715
274.31772	29768
274.32733	29873
274.33698	29911
274.34662	30009
274.35626	30134
274.36591	30091
274.37552	29952
274.38516	29797
274.39481	29935
274.40445	30069
274.41406	30162
274.42371	30246
274.43335	30162
274.44299	30450
274.45261	30666
274.46225	30460
274.47189	30283
274.48154	30336
274.49115	30353
274.50079	30265
274.51044	30284
274.52005	30371
274.52969	30372
274.53934	30258
274.54895	29901
274.55859	29738
274.56824	29719
274.57785	29846
274.58749	30036
274.59714	30288
274.60675	30120
274.61639	29963
274.62604	30104
274.63565	30143
274.64529	30039
274.65491	30033
274.66455	30075
274.67419	30119
274.68381	30030
274.69345	29998
274.70306	29919
274.71271	29937
274.72235	29894
274.73196	29820
274.74161	29926
274.75122	29955
274.76086	29898
274.77048	29970
274.78012	29982
274.78976	29875
274.79938	29775
274.80902	29548
274.81863	29295
274.82828	29211
274.83789	29095
274.84753	29134
274.85715	29232
274.86679	29407
274.8764	29289
274.88605	29193
274.89566	29076
274.9053	29035
274.91492	29039
274.92456	29140
274.93417	29411
274.94379	29579
274.95343	29589
274.96304	29410
274.97269	29303
274.9823	29425
274.99194	29572
275.00156	29518
275.01117	29605
275.02081	29637
275.03043	29588
275.04007	29351
275.04968	29333
275.0593	29153
275.06894	29132
275.07855	29178
275.0882	29396
275.09781	29805
275.10742	29946
275.11707	29911
275.12668	29729
275.13629	29708
275.14594	29759
275.15555	29847
275.16516	29950
275.1748	30132
275.18442	30269
275.19403	30155
275.20367	30154
275.21329	30080
275.2229	30058
275.23254	30200
275.24216	30177
275.25177	30397
275.26138	30437
275.27103	30294
275.28064	30158
275.29025	30175
275.29987	30268
275.30951	30357
275.31912	30360
275.32874	30349
275.33835	30235
275.34799	30241
275.3576	30325
275.36722	30356
275.37683	30592
275.38644	30681
275.39609	30737
275.4057	31034
275.41531	31040
275.42493	31048
275.43454	30986
275.44418	30876
275.4538	30814
275.46341	30646
275.47302	30570
275.48264	30597
275.49225	30402
275.50186	30370
275.51151	30477
275.52112	30755
275.53073	30830
275.54034	30918
275.54996	30834
275.55957	30878
275.56918	30899
275.5788	31107
275.58841	31441
275.59805	31836
275.60767	32098
275.61728	32200
275.62689	32002
275.63651	32185
275.64612	32299
275.65573	32447
275.66534	32404
275.67496	32545
275.68457	32640
275.69418	32520
275.7038	32387
275.71341	32191
275.72302	32127
275.73264	32208
275.74225	32582
275.75186	32970
275.76147	33345
275.77109	33394
275.7807	33158
275.79031	33165
275.79993	33288
275.80954	33624
275.81915	33993
275.82877	34219
275.83838	34270
275.84799	34309
275.8576	34410
275.86722	34366
275.87683	34491
275.88641	34475
275.89603	34649
275.90564	34721
275.91525	34639
275.92487	34697
275.93448	34553
275.94409	34599
275.9537	34718
275.96332	34735
275.9729	34773
275.98251	34753
275.99213	34903
276.00174	34761
276.01135	34780
276.02097	34952
276.03058	35054
276.04016	35363
276.04977	35659
276.05939	35752
276.069	35773
276.07861	35831
276.0882	35790
276.09781	35675
276.10742	35636
276.11703	35638
276.12665	35631
276.13623	35955
276.14584	35820
276.15546	35948
276.16507	35898
276.17465	36144
276.18427	35909
276.19388	35748
276.20349	35562
276.21307	35802
276.22269	35803
276.2323	35910
276.24191	36041
276.2515	35848
276.26111	35761
276.27072	35785
276.2803	35600
276.28992	35926
276.29953	36416
276.30911	36308
276.31873	36360
276.32834	36097
276.33792	36108
276.34753	36110
276.35715	36393
276.36673	36518
276.37634	36868
276.38596	37116
276.39554	36950
276.40515	37071
276.41473	37217
276.42435	37252
276.43396	37185
276.44354	37355
276.45316	37507
276.46274	37295
276.47235	37465
276.48196	37171
276.49155	37559
276.50116	37230
276.51074	37240
276.52036	37147
276.52994	37149
276.53955	37341
276.54913	37368
276.55875	37329
276.56836	37402
276.57794	37563
276.58755	37737
276.59714	38241
276.60675	38370
276.61633	38148
276.62595	38195
276.63553	38386
276.64514	38286
276.65472	37890
276.66431	38045
276.67392	37963
276.6835	38318
276.69312	37993
276.7027	37914
276.71231	37920
276.72189	38227
276.73151	38560
276.74109	38496
276.75067	38659
276.76028	38629
276.76987	38390
276.77948	38378
276.78906	38270
276.79865	38433
276.80826	38569
276.81784	38756
276.82745	38563
276.83704	38813
276.84662	38495
276.85623	38467
276.86581	38554
276.8754	38525
276.88501	38603
276.89459	38753
276.90417	38799
276.91379	38642
276.92337	38935
276.93295	38661
276.94257	38961
276.95215	39177
276.96173	39271
276.97134	39187
276.98093	39223
276.99051	39017
277.00009	38804
277.0097	38947
277.01929	39242
277.02887	39348
277.03845	39456
277.04807	39517
277.05765	40057
277.06723	39700
277.07681	40016
277.08643	39640
277.09601	39710
277.10559	39664
277.11517	39740
277.12476	39578
277.13437	39771
277.14395	39591
277.15353	39468
277.16312	39208
277.1727	39115
277.18228	39371
277.19189	39327
277.20148	39426
277.21106	39607
277.22064	39493
277.23022	39215
277.23981	39420
277.24942	39193
277.259	39218
277.26859	39409
277.27817	39139
277.28775	39247
277.29733	39063
277.30692	39224
277.3165	38892
277.32608	39105
277.33566	38953
277.34525	38939
277.35486	38887
277.36444	38923
277.37402	39164
277.38361	38849
277.39319	39125
277.40277	38785
277.41235	38577
277.42194	38398
277.43152	38281
277.4411	37989
277.45068	38063
277.46027	38101
277.46985	37998
277.47943	38495
277.48901	38152
277.4986	37990
277.50818	38102
277.51776	38085
277.52734	38012
277.53693	38356
277.54651	38376
277.55609	38713
277.56567	38818
277.57526	38604
277.58481	38622
277.59439	38814
277.60397	38606
277.61356	38765
277.62314	38739
277.63272	38773
277.6423	38615
277.65189	38677
277.66147	38245
277.67105	38367
277.6806	38479
277.69019	38182
277.69977	38591
277.70935	38761
277.71893	38992
277.72852	38994
277.7381	39002
277.74765	38965
277.75723	38972
277.76682	39370
277.7764	39244
277.78598	39588
277.79556	39593
277.80511	39476
277.8147	39474
277.82428	39321
277.83386	39544
277.84341	39232
277.853	39316
277.86258	39323
277.87216	39609
277.88174	39358
277.8913	39337
277.90088	39523
277.91046	39377
277.92001	39690
277.9296	39386
277.93918	39372
277.94876	39261
277.95831	39258
277.9679	39095
277.97748	39418
277.98703	39329
277.99661	39495
278.0062	39599
278.01578	39693
278.02533	39881
278.03491	39786
278.04446	39518
278.05405	39687
278.06363	39204
278.07318	39406
278.08276	39037
278.09235	39111
278.1019	38869
278.11148	38955
278.12106	38771
278.13062	38976
278.1402	38886
278.14975	38701
278.15933	38941
278.16891	38649
278.17847	38767
278.18805	38782
278.1976	39248
278.20718	39755
278.21674	39524
278.22632	39756
278.2359	39485
278.24545	39510
278.25504	39790
278.26459	39392
278.27417	39681
278.28372	39631
278.2933	39783
278.30286	39256
278.31244	39079
278.32199	38774
278.33157	38918
278.34113	38751
278.35071	39030
278.36026	39361
278.36984	39475
278.37939	39310
278.38895	39177
278.39853	38969
278.40808	39246
278.41766	39197
278.42722	39526
278.4368	39516
278.44635	39753
278.45593	39431
278.46548	39511
278.47504	39157
278.48462	39295
278.49417	39143
278.50372	39207
278.51331	39040
278.52286	39004
278.53244	38848
278.54199	38652
278.55154	38803
278.56113	38664
278.57068	38378
278.58023	38288
278.58981	38399
278.59937	38098
278.60892	38020
278.6185	37992
278.62805	37783
278.6376	38023
278.64719	38023
278.65674	38203
278.66629	37930
278.67584	38062
278.68542	37787
278.69498	37837
278.70453	37729
278.71411	37578
278.72366	37326
278.73322	37467
278.74277	37481
278.75235	37290
278.7619	37585
278.77145	37389
278.78101	37121
278.79056	37022
278.80014	36916
278.80969	36614
278.81924	36588
278.8288	36574
278.83835	36294
278.84793	36352
278.85748	35880
278.86703	36012
278.87659	35561
278.88614	35617
278.89569	35860
278.90527	35876
278.91483	35815
278.92438	35453
278.93393	35309
278.94348	35098
278.95303	35012
278.96259	35159
278.97214	35182
278.98172	35468
278.99127	35592
279.00082	35330
279.01038	35311
279.01993	35320
279.02948	35236
279.03903	35163
279.04858	35104
279.05814	35108
279.06769	34798
279.07724	34905
279.08679	34807
279.09634	34828
279.1059	34516
279.11545	34408
279.125	34118
279.13455	34222
279.1441	34099
279.15366	34102
279.16321	34094
279.17276	34255
279.18231	33943
279.19186	34130
279.20142	34295
279.21097	34369
279.22052	34003
279.23007	33946
279.23962	34072
279.24918	33906
279.25873	33938
279.26828	33690
279.27783	33735
279.28738	33601
279.29694	33428
279.30649	33207
279.31601	33291
279.32556	33177
279.33511	33222
279.34467	33385
279.35422	33243
279.36377	32970
279.37332	32931
279.38287	32707
279.3924	32702
279.40195	32957
279.4115	33032
279.42105	32903
279.4306	32934
279.44016	32942
279.44968	32894
279.45923	32811
279.46878	32850
279.47833	32911
279.48788	32898
279.49741	33050
279.50696	33126
279.51651	32928
279.52606	32874
279.53561	33024
279.54514	33068
279.55469	33307
279.56424	33509
279.57379	33523
279.58331	33285
279.59286	33293
279.60242	33342
279.61194	33488
279.62149	33700
279.63104	33774
279.64059	33746
279.65012	33797
279.65967	34077
279.66922	34022
279.67874	34262
279.68829	34161
279.69785	34484
279.70737	34522
279.71692	34323
279.72647	34538
279.73599	34753
279.74554	34814
279.7551	34668
279.76462	34607
279.77417	34525
279.78369	34755
279.79324	34827
279.8028	35071
279.81232	35201
279.82187	35044
279.83139	34885
279.84094	35114
279.85049	35212
279.86002	35323
279.86957	35338
279.87909	35645
279.88864	35460
279.89816	35459
279.90771	35566
279.91727	35631
279.92679	35656
279.93634	35559
279.94586	35573
279.95541	35778
279.96494	35856
279.97449	35834
279.98401	36101
279.99356	35826
280.00308	35790
280.01263	35788
280.02216	35796
280.03168	35746
280.04123	36014
280.05075	35871
280.0603	36140
280.06982	36132
280.07938	36317
280.0889	36206
280.09845	36407
280.10797	36289
280.11749	36588
280.12704	36459
280.13657	36825
280.14612	37101
280.15564	37007
280.16516	37447
280.17471	37522
280.18423	37620
280.19376	37823
280.20331	38047
280.21283	37963
280.22238	37862
280.2319	37589
280.24142	37718
280.25098	37932
280.2605	37912
280.27002	37854
280.27957	38001
280.28909	38067
280.29861	38087
280.30814	38456
280.31769	38645
280.32721	38846
280.33673	38794
280.34628	38661
280.3558	39031
280.36533	39038
280.37485	39361
280.3844	39347
280.39392	39552
280.40344	39680
280.41296	39303
280.42252	39216
280.43204	39362
280.44156	39186
280.45108	39364
280.4606	39109
280.47015	39142
280.47968	39500
280.4892	39372
280.49872	39489
280.50824	39579
280.51776	39795
280.52731	39616
280.53683	39286
280.54636	39265
280.55588	39147
280.5654	38736
280.57492	38692
280.58444	38824
280.59399	39015
280.60352	38952
280.61304	39071
280.62256	39170
280.63208	39276
280.6416	38840
280.65112	39275
280.66064	38686
280.67017	39074
280.67969	38691
280.68924	38791
280.69876	38496
280.70828	38334
280.7178	38376
280.72733	38472
280.73685	38233
280.74637	38439
280.75589	38200
280.76541	38191
280.77493	38249
280.78445	38274
280.79398	38543
280.8035	38900
280.81302	38899
280.82254	38891
280.83206	38710
280.84158	38855
280.8511	38840
280.86063	38909
280.87015	38853
280.87967	38937
280.88916	38782
280.89868	38766
280.9082	38452
280.91772	38060
280.92725	38037
280.93677	38282
280.94629	38496
280.95581	38593
280.96533	38716
280.97485	38799
280.98438	38817
280.99387	38600
281.00339	38999
281.01291	38880
281.02243	39108
281.03195	39465
281.04147	39425
281.05099	39251
281.06049	39601
281.07001	39353
281.07953	39520
281.08905	39512
281.09857	39294
281.10806	39421
281.11758	39561
281.12711	39405
281.13663	39505
281.14615	39086
281.15564	39578
281.16516	39561
281.17468	39235
281.1842	39597
281.1937	39462
281.20322	39463
281.21274	39497
281.22226	39790
281.23175	39816
281.24127	39851
281.25079	39859
281.26031	40113
281.26981	40392
281.27933	40388
281.28885	40229
281.29834	40429
281.30786	40378
281.31738	40481
281.32687	40568
281.3364	40494
281.34592	40472
281.35541	40724
281.36493	40848
281.37445	40608
281.38394	40800
281.39346	40791
281.40295	40520
281.41248	40857
281.422	40658
281.43149	40943
281.44101	40789
281.4505	41103
281.46002	40826
281.46954	40975
281.47903	41056
281.48856	41099
281.49805	41316
281.50757	41165
281.51706	41425
281.52658	41047
281.5361	41374
281.54559	41324
281.55511	41424
281.56461	41553
281.57413	41841
281.58362	41735
281.59314	41985
281.60263	41906
281.61215	42186
281.62164	42323
281.63116	42327
281.64066	42407
281.65018	42488
281.65967	42236
281.66916	42503
281.67868	42273
281.68817	42429
281.69769	42564
281.70718	42003
281.71671	42400
281.7262	42001
281.73569	42402
281.74521	42497
281.7547	42434
281.76422	42629
281.77371	42821
281.7832	42805
281.79272	42885
281.80222	42465
281.81174	41303
281.82123	38976
