Date and Time:                Tue Apr 26 17:02:31.000 2022
Software Version:             4.31.30023.0
Temperature (C):              -40
Model:                        DU940P_BU2
Data Type:                    Counts
Acquisition Mode:             Single Scan
Trigger Mode:                 Internal
Exposure Time (secs):         30
Readout Mode:                 Full Vertical Binning
Horizontal binning:           1
Extended Dynamic Range:       off
Horizontally flipped:         false
Vertical Shift Speed (usecs): 14.51
Pixel Readout Rate (MHz):     3
Baseline Clamp:               ON
Clock Amplitude:              Normal
Output Amplifier:             High Capacity
Serial Number:                23634
Pre-Amplifier Gain:           1.000000
Spurious Noise Filter Mode:   No Filter
Photon counted:               false
Data Averaging Filter Mode:   No Filter
SR500i:
Serial Number:                
Wavelength (nm):              320
Grating Groove Density (l/mm):1199.47
Grating Blaze:                500
Output Flipper Port:          Direct
Accessory Output Port 1:      Off
Accessory Output Port 2:      Off
Accessory Output Port 3:      Off
Accessory Input Port:         On



298.5668	7688
298.58786	7359
298.60892	7417
298.62997	7412
298.65103	7496
298.67209	7496
298.69315	7400
298.7142	7405
298.73526	7467
298.75632	7539
298.77737	7511
298.79843	7507
298.81949	7527
298.84055	7544
298.8616	7586
298.88266	7528
298.90372	7555
298.92477	7702
298.9458	7790
298.96686	7706
298.98792	7691
299.00897	7694
299.03003	7755
299.05109	7702
299.07214	7714
299.0932	7739
299.11426	7783
299.13531	7818
299.15634	7824
299.1774	7867
299.19846	8008
299.21951	8047
299.24057	8143
299.26163	8174
299.28268	8245
299.30371	8203
299.32477	8236
299.34583	8296
299.36688	8396
299.38794	8468
299.40897	8435
299.43002	8494
299.45108	8680
299.47214	8708
299.49319	8758
299.51422	8802
299.53528	8799
299.55634	8832
299.57739	8882
299.59842	8983
299.61948	9100
299.64053	9166
299.66159	9262
299.68262	9226
299.70367	9249
299.72473	9296
299.74576	9303
299.76682	9392
299.78787	9470
299.8089	9468
299.82996	9424
299.85101	9446
299.87204	9517
299.8931	9541
299.91415	9557
299.93518	9546
299.95624	9607
299.97729	9565
299.99832	9560
300.01938	9544
300.04041	9569
300.06146	9560
300.08252	9557
300.10355	9594
300.1246	9576
300.14563	9614
300.16669	9518
300.18771	9542
300.20877	9518
300.22983	9487
300.25085	9426
300.27191	9400
300.29294	9389
300.314	9311
300.33502	9323
300.35608	9306
300.37711	9387
300.39816	9285
300.41919	9269
300.44025	9279
300.46127	9227
300.48233	9235
300.50336	9243
300.52441	9305
300.54544	9329
300.56647	9339
300.58752	9290
300.60855	9300
300.62961	9275
300.65063	9234
300.67169	9240
300.69272	9259
300.71375	9269
300.7348	9239
300.75583	9153
300.77686	9070
300.79791	9124
300.81894	9141
300.84	9081
300.86102	9138
300.88205	9179
300.90311	9289
300.92413	9202
300.94516	9136
300.96622	9057
300.98724	9115
301.00827	9116
301.0293	9217
301.05035	9193
301.07138	9221
301.09241	9180
301.11346	9136
301.13449	9101
301.15552	9001
301.17654	9009
301.1976	9002
301.21863	8979
301.23965	8966
301.26068	8917
301.28174	8882
301.30276	8865
301.32379	8844
301.34482	8839
301.36584	8770
301.3869	8766
301.40793	8699
301.42896	8667
301.44998	8597
301.47101	8585
301.49203	8569
301.51309	8568
301.53412	8587
301.55515	8573
301.57617	8636
301.5972	8533
301.61823	8507
301.63925	8448
301.66028	8424
301.68134	8308
301.70236	8358
301.72339	8335
301.74442	8228
301.76544	8168
301.78647	8153
301.8075	8180
301.82852	8124
301.84955	8027
301.87057	8025
301.8916	7944
301.91263	7905
301.93365	7896
301.95468	7926
301.97571	7945
301.99673	7918
302.01776	7898
302.03879	7886
302.05981	7836
302.08084	7790
302.10187	7716
302.12289	7682
302.14392	7632
302.16495	7641
302.18597	7606
302.207	7551
302.22803	7495
302.24905	7445
302.27005	7384
302.29108	7475
302.3121	7504
302.33313	7470
302.35416	7397
302.37518	7309
302.39621	7302
302.41724	7302
302.43826	7319
302.45926	7378
302.48029	7433
302.50131	7413
302.52234	7317
302.54337	7313
302.56439	7308
302.58539	7334
302.60641	7290
302.62744	7317
302.64847	7303
302.66949	7286
302.69049	7268
302.71152	7223
302.73254	7246
302.75357	7222
302.77457	7209
302.79559	7156
302.81662	7223
302.83765	7226
302.85864	7225
302.87967	7277
302.9007	7255
302.92169	7266
302.94272	7311
302.96375	7477
302.98474	7451
303.00577	7478
303.02679	7515
303.04782	7555
303.06882	7593
303.08984	7596
303.11084	7586
303.13187	7659
303.15289	7657
303.17389	7648
303.19492	7683
303.21594	7740
303.23694	7801
303.25797	7889
303.27896	7954
303.29999	8028
303.32101	8046
303.34201	8030
303.36304	8074
303.38403	8132
303.40506	8250
303.42606	8292
303.44708	8380
303.46808	8541
303.48911	8639
303.5101	8692
303.53113	8675
303.55212	8731
303.57315	8827
303.59415	8884
303.61517	8999
303.63617	9112
303.6572	9156
303.67819	9207
303.69922	9289
303.72021	9483
303.74124	9636
303.76224	9700
303.78326	9726
303.80426	9815
303.82526	9879
303.84628	9930
303.86728	9948
303.88831	10057
303.9093	10215
303.9303	10280
303.95132	10255
303.97232	10310
303.99332	10397
304.01434	10492
304.03534	10573
304.05634	10694
304.07736	10691
304.09836	10709
304.11935	10835
304.14038	10820
304.16138	10876
304.18237	10888
304.2034	10819
304.2244	10812
304.24539	10790
304.26642	10838
304.28741	10877
304.30841	10983
304.32941	11004
304.35043	10956
304.37143	10967
304.39243	11023
304.41342	11011
304.43442	10935
304.45544	11025
304.47644	10976
304.49744	10994
304.51843	11013
304.53943	10929
304.56046	10880
304.58145	10891
304.60245	10799
304.62344	10715
304.64444	10799
304.66544	10718
304.68646	10706
304.70746	10475
304.72845	10406
304.74945	10356
304.77045	10349
304.79144	10312
304.81244	10289
304.83344	10291
304.85443	10173
304.87546	10110
304.89645	10079
304.91745	10132
304.93845	10117
304.95944	10098
304.98044	10094
305.00143	10019
305.02243	9998
305.04343	9955
305.06442	9878
305.08542	9843
305.10641	9740
305.12741	9732
305.14841	9726
305.1694	9767
305.1904	9698
305.2114	9762
305.23239	9714
305.25339	9701
305.27438	9684
305.29538	9701
305.31638	9670
305.33737	9725
305.35834	9730
305.37933	9708
305.40033	9667
305.42133	9680
305.44232	9655
305.46332	9655
305.48431	9624
305.50531	9662
305.52631	9650
305.54727	9600
305.56827	9581
305.58926	9585
305.61026	9588
305.63126	9627
305.65225	9709
305.67322	9698
305.69421	9688
305.71521	9681
305.73621	9649
305.7572	9718
305.77817	9776
305.79916	9744
305.82016	9823
305.84116	9881
305.86212	9878
305.88312	9861
305.90411	9887
305.92511	9876
305.94608	9920
305.96707	9905
305.98807	9862
306.00906	9924
306.03003	9922
306.05103	9875
306.07202	9975
306.09299	10047
306.11398	10017
306.13498	10081
306.15594	10060
306.17694	10148
306.19794	10158
306.2189	10247
306.2399	10269
306.26086	10451
306.28186	10516
306.30286	10534
306.32382	10592
306.34482	10629
306.36581	10643
306.38678	10592
306.40778	10680
306.42874	10709
306.44974	10736
306.4707	10755
306.4917	10754
306.51266	10845
306.53366	10858
306.55466	10950
306.57562	11016
306.59662	11163
306.61758	11314
306.63858	11320
306.65955	11295
306.68054	11307
306.70151	11404
306.72247	11486
306.74347	11548
306.76443	11713
306.78543	11742
306.8064	11772
306.82739	11825
306.84836	11912
306.86935	11948
306.89032	11999
306.91129	12043
306.93228	12177
306.95325	12286
306.97424	12235
306.99521	12313
307.01617	12291
307.03717	12407
307.05814	12401
307.0791	12438
307.1001	12465
307.12106	12471
307.14203	12485
307.16302	12538
307.18399	12566
307.20496	12656
307.22595	12757
307.24692	12873
307.26788	12907
307.28888	12923
307.30984	12952
307.33081	12970
307.35178	12915
307.37277	12896
307.39374	12869
307.4147	12975
307.43567	12982
307.45667	12885
307.47763	12864
307.4986	12770
307.51956	12852
307.54053	12813
307.56152	12846
307.58249	12802
307.60345	12789
307.62442	12797
307.64539	12749
307.66635	12772
307.68735	12963
307.70831	12940
307.72928	12803
307.75024	12751
307.77121	12677
307.79218	12547
307.81314	12480
307.83411	12427
307.8551	12395
307.87607	12424
307.89703	12329
307.918	12267
307.93896	12094
307.95993	12000
307.9809	11946
308.00186	12028
308.02283	11974
308.04379	11937
308.06476	11824
308.08572	11715
308.10669	11669
308.12766	11534
308.14862	11586
308.16959	11561
308.19055	11603
308.21152	11587
308.23248	11460
308.25345	11373
308.27441	11313
308.29538	11255
308.31635	11205
308.33731	11137
308.35828	11052
308.37924	10954
308.40021	10856
308.42114	10850
308.44211	10748
308.46307	10674
308.48404	10602
308.505	10444
308.52597	10393
308.54694	10445
308.5679	10395
308.58884	10448
308.6098	10338
308.63077	10279
308.65173	10292
308.6727	10328
308.69366	10329
308.7146	10285
308.73557	10260
308.75653	10299
308.7775	10239
308.79846	10225
308.8194	10113
308.84036	10100
308.86133	10086
308.88229	9983
308.90323	9941
308.92419	9929
308.94516	9964
308.96613	9986
308.98706	9985
309.00803	10017
309.02899	10015
309.04993	9989
309.07089	9856
309.09186	9854
309.11279	9889
309.13376	9857
309.15472	9927
309.17566	9962
309.19662	9997
309.21759	9981
309.23853	9933
309.25949	9900
309.28043	9920
309.30139	9980
309.32236	10002
309.34329	10037
309.36426	10071
309.38519	10055
309.40616	10045
309.42712	10156
309.44806	10202
309.46902	10234
309.48996	10292
309.51093	10310
309.53186	10326
309.55283	10285
309.57376	10303
309.59473	10411
309.61566	10506
309.63663	10550
309.65756	10527
309.67853	10555
309.69946	10584
309.72043	10691
309.74136	10722
309.76233	10777
309.78326	10751
309.8042	10812
309.82516	10828
309.8461	10911
309.86707	10958
309.888	11045
309.90897	10937
309.9299	10971
309.95084	10943
309.9718	11023
309.99274	11198
310.01367	11310
310.03464	11367
310.05557	11321
310.07651	11341
310.09747	11480
310.11841	11552
310.13934	11533
310.16031	11556
310.18124	11626
310.20218	11742
310.22314	11739
310.24408	11790
310.26501	11786
310.28595	11855
310.30692	11798
310.32785	11880
310.34879	11913
310.36972	12017
310.39069	12061
310.41162	12000
310.43256	12013
310.45349	12041
310.47446	12147
310.49539	12132
310.51633	12198
310.53726	12242
310.5582	12244
310.57913	12405
310.6001	12496
310.62103	12619
310.64197	12701
310.6629	12804
310.68384	12712
310.70477	12722
310.72571	12790
310.74667	12848
310.76761	12933
310.78854	12987
310.80948	13060
310.83041	13071
310.85135	13156
310.87228	13332
310.89322	13415
310.91415	13426
310.93509	13444
310.95602	13410
310.97696	13569
310.99789	13563
311.01883	13636
311.03976	13709
311.0607	13707
311.08163	13740
311.10257	13783
311.1235	13810
311.14444	13906
311.16537	13926
311.18631	13935
311.20724	14042
311.22818	14044
311.24911	14158
311.27005	14205
311.29099	14277
311.31192	14271
311.33286	14391
311.35379	14361
311.37469	14362
311.39563	14326
311.41656	14352
311.4375	14306
311.45844	14464
311.47937	14491
311.50031	14567
311.52124	14574
311.54214	14612
311.56308	14690
311.58401	14746
311.60495	14765
311.62589	14831
311.64679	14775
311.66772	14786
311.68866	14780
311.70959	14742
311.73053	14716
311.75143	14794
311.77237	14830
311.7933	14809
311.81424	14767
311.83514	14605
311.85608	14605
311.87701	14617
311.89792	14623
311.91885	14732
311.93979	14841
311.96072	14994
311.98163	14967
312.00256	14917
312.0235	14963
312.0444	14931
312.06534	14917
312.08627	14897
312.10718	14865
312.12811	14912
312.14902	14901
312.16995	14678
312.19089	14612
312.21179	14580
312.23273	14575
312.25363	14667
312.27457	14718
312.2955	14811
312.31641	14834
312.33734	14607
312.35825	14574
312.37918	14533
312.40009	14562
312.42102	14696
312.44193	14671
312.46286	14741
312.48376	14675
312.5047	14589
312.5256	14541
312.54654	14597
312.56744	14582
312.58838	14527
312.60928	14614
312.63022	14583
312.65112	14582
312.67206	14525
312.69296	14502
312.71387	14392
312.7348	14382
312.75571	14437
312.77664	14378
312.79755	14360
312.81845	14285
312.83939	14286
312.86029	14302
312.88123	14395
312.90213	14399
312.92303	14464
312.94397	14562
312.96487	14574
312.98578	14591
313.00671	14608
313.02762	14622
313.04852	14509
313.06943	14457
313.09036	14496
313.11127	14546
313.13217	14524
313.15311	14424
313.17401	14436
313.19492	14517
313.21582	14556
313.23676	14560
313.25766	14576
313.27856	14626
313.29947	14664
313.32037	14633
313.34131	14669
313.36221	14906
313.38312	15023
313.40402	15016
313.42493	14978
313.44586	15079
313.46677	14983
313.48767	15015
313.50858	15026
313.52948	15066
313.55038	15041
313.57129	15058
313.59222	15127
313.61313	15151
313.63403	15103
313.65494	15175
313.67584	15236
313.69675	15325
313.71765	15359
313.73856	15323
313.75946	15350
313.78036	15271
313.80127	15306
313.82217	15325
313.84308	15402
313.86398	15499
313.88489	15619
313.90579	15612
313.9267	15593
313.9476	15598
313.96851	15560
313.98941	15543
314.01031	15499
314.03122	15403
314.05212	15372
314.07303	15208
314.09393	15152
314.11484	15126
314.13574	14988
314.15665	14848
314.17755	14710
314.19846	14633
314.21933	14662
314.24023	14656
314.26114	14750
314.28204	14657
314.30295	14442
314.32385	14349
314.34476	14446
314.36563	14427
314.38654	14310
314.40744	14220
314.42834	14207
314.44925	14208
314.47012	14038
314.49103	13943
314.51193	13764
314.53284	13798
314.55374	13678
314.57462	13525
314.59552	13519
314.61642	13421
314.63733	13440
314.6582	13386
314.67911	13342
314.70001	13309
314.72089	13261
314.74179	13070
314.7627	12954
314.7836	12884
314.80447	12762
314.82538	12724
314.84628	12759
314.86716	12809
314.88806	12783
314.90897	12609
314.92984	12507
314.95074	12425
314.97162	12474
314.99252	12393
315.01343	12388
315.0343	12370
315.05521	12325
315.07608	12270
315.09698	12237
315.11786	12290
315.13876	12304
315.15967	12323
315.18054	12284
315.20145	12257
315.22232	12192
315.24323	12167
315.2641	12079
315.285	12178
315.30588	12142
315.32678	12163
315.34766	12160
315.36856	12145
315.38943	12236
315.41034	12155
315.43121	12247
315.45212	12247
315.47299	12286
315.49387	12279
315.51477	12341
315.53564	12344
315.55655	12384
315.57742	12333
315.5983	12292
315.6192	12318
315.64008	12298
315.66098	12395
315.68185	12451
315.70273	12569
315.72363	12566
315.74451	12633
315.76538	12651
315.78629	12654
315.80716	12698
315.82803	12679
315.84894	12742
315.86981	12776
315.89069	12842
315.91156	12855
315.93246	12843
315.95334	12903
315.97421	12972
315.99509	13009
316.01599	13042
316.03687	13129
316.05774	13136
316.07861	13209
316.09952	13183
316.12039	13157
316.14127	13157
316.16214	13116
316.18301	13000
316.20389	13030
316.22479	13074
316.24567	13023
316.26654	13125
316.28741	13221
316.30829	13207
316.32916	13282
316.35004	13268
316.37094	13314
316.39182	13350
316.41269	13376
316.43356	13489
316.45444	13636
316.47531	13680
316.49619	13619
316.51706	13592
316.53793	13716
316.55881	13777
316.57968	13868
316.60056	13841
316.62143	13910
316.6423	13898
316.66318	13862
316.68405	13822
316.70493	13738
316.7258	13798
316.74667	13844
316.76755	13905
316.78842	13985
316.8093	14057
316.83017	14056
316.85104	14064
316.87192	14127
316.89279	14136
316.91367	14100
316.93454	14091
316.95538	14258
316.97626	14360
316.99713	14285
317.01801	14267
317.03888	14308
317.05975	14253
317.08063	14220
317.1015	14316
317.12234	14367
317.14322	14357
317.16409	14305
317.18497	14304
317.20584	14343
317.22668	14402
317.24756	14529
317.26843	14560
317.28931	14688
317.31015	14616
317.33102	14614
317.3519	14605
317.37277	14687
317.39362	14792
317.41449	14885
317.43536	14908
317.45624	15092
317.47708	15263
317.49796	15252
317.51883	15195
317.53967	15151
317.56055	15126
317.58142	15264
317.60226	15368
317.62314	15565
317.64401	15723
317.66486	15830
317.68573	15909
317.7066	16060
317.72745	16130
317.74832	16278
317.76917	16392
317.79004	16450
317.81091	16662
317.83176	16712
317.85263	16781
317.87347	16891
317.89435	16954
317.91519	17121
317.93607	17230
317.95691	17559
317.97778	17824
317.99863	17839
318.0195	17945
318.04034	17994
318.06122	18250
318.08206	18552
318.10294	18799
318.12378	19020
318.14465	19228
318.1655	19358
318.18637	19485
318.20721	19639
318.22806	19707
318.24893	19847
318.26978	20028
318.29065	20255
318.31149	20316
318.33234	20419
318.35321	20558
318.37405	20655
318.39493	20830
318.41577	20850
318.43661	20841
318.45749	20924
318.47833	20972
318.49918	20972
318.52005	21130
318.54089	21181
318.56174	21153
318.58258	21378
318.60345	21622
318.6243	21707
318.64514	21699
318.66602	21700
318.68686	21713
318.7077	21637
318.72855	21609
318.74939	21540
318.77026	21505
318.79111	21435
318.81195	21187
318.83279	21014
318.85364	20911
318.87451	20848
318.89536	20670
318.9162	20454
318.93704	20345
318.95789	20144
318.97873	19960
318.9996	19832
319.02045	19714
319.04129	19643
319.06213	19609
319.08298	19399
319.10382	19215
319.12466	18986
319.14551	18813
319.16635	18561
319.18719	18363
319.20807	18255
319.22891	17966
319.24976	17845
319.2706	17699
319.29144	17497
319.31229	17311
319.33313	17154
319.35397	16995
319.37482	16964
319.39566	16764
319.4165	16669
319.43735	16451
319.45819	16233
319.47903	16042
319.49985	15859
319.52069	15858
319.54153	15829
319.56238	15760
319.58322	15710
319.60406	15550
319.62491	15458
319.64575	15322
319.6666	15200
319.68744	15053
319.70825	14966
319.7291	14832
319.74994	14627
319.77078	14562
319.79163	14469
319.81247	14319
319.83331	14208
319.85413	14125
319.87497	14165
319.89581	14142
319.91666	14044
319.9375	13993
319.95831	13930
319.97916	13699
320	13695
320.02084	13821
320.04166	13783
320.0625	13794
320.08334	13720
320.10416	13751
320.125	13786
320.14584	13702
320.16669	13725
320.1875	13764
320.20834	13790
320.22919	13648
320.25	13702
320.27084	13654
320.29169	13695
320.3125	13763
320.33334	13924
320.35416	13952
320.375	14040
320.39584	13966
320.41666	13904
320.4375	13890
320.45831	13976
320.47916	14071
320.5	14135
320.52081	14227
320.54166	14346
320.56247	14331
320.58331	14247
320.60413	14373
320.62497	14466
320.64578	14512
320.66663	14604
320.68744	14764
320.70828	14801
320.7291	14807
320.74994	14857
320.77075	15096
320.7916	15200
320.81241	15231
320.83325	15329
320.85406	15417
320.87488	15519
320.89572	15522
320.91653	15610
320.93738	15681
320.95819	15886
320.979	16020
320.99985	15948
321.02066	15984
321.04147	16127
321.06232	16309
321.08313	16342
321.10397	16453
321.12479	16517
321.1456	16631
321.16641	16605
321.18726	16670
321.20807	16805
321.22888	16892
321.24973	16869
321.27054	16905
321.29135	16838
321.31216	16854
321.33301	16983
321.35382	17212
321.37463	17222
321.39545	17120
321.41629	17066
321.4371	17205
321.45792	17252
321.47873	17341
321.49954	17285
321.52039	17286
321.5412	17354
321.56201	17324
321.58282	17232
321.60364	17118
321.62445	17136
321.64526	17093
321.66611	17078
321.68692	17238
321.70773	17285
321.72855	17204
321.74936	17228
321.77017	17183
321.79099	17214
321.8118	17106
321.83261	16968
321.85342	16826
321.87424	16761
321.89505	16689
321.91586	16760
321.93668	16928
321.95749	16969
321.9783	16917
321.99911	16840
322.01993	16751
322.04074	16687
322.06155	16690
322.08237	16701
322.10318	16857
322.12399	16955
322.14481	16977
322.16562	16925
322.18643	17018
322.20724	17079
322.22806	17059
322.24887	17092
322.26968	17081
322.29047	17002
322.31128	17053
322.33209	16947
322.35291	16857
322.37372	16883
322.39453	16923
322.41531	16857
322.43613	16959
322.45694	17074
322.47775	17116
322.49857	17075
322.51938	17098
322.54016	17173
322.56097	17278
322.58179	17253
322.6026	17268
322.62338	17373
322.6442	17321
322.66501	17352
322.68582	17321
322.7066	17387
322.72742	17272
322.74823	17224
322.76901	17206
322.78983	17313
322.81064	17268
322.83142	17280
322.85223	17266
322.87305	17235
322.89383	17364
322.91464	17398
322.93546	17319
322.95624	17387
322.97705	17388
322.99783	17216
323.01865	17194
323.03946	17212
323.06024	17313
323.08105	17375
323.10184	17437
323.12265	17495
323.14343	17589
323.16425	17511
323.18503	17303
323.20584	17130
323.22662	17229
323.24744	17229
323.26822	17159
323.28903	17264
323.30981	17248
323.33063	17160
323.35141	17108
323.37222	17143
323.39301	17130
323.41382	17067
323.4346	17095
323.45541	17051
323.4762	17025
323.49698	16924
323.51779	16896
323.53857	16810
323.55939	16697
323.58017	16649
323.60095	16766
323.62177	16827
323.64255	16876
323.66333	16646
323.68414	16555
323.70493	16550
323.72571	16666
323.74652	16630
323.7673	16761
323.78809	16770
323.8089	16747
323.82968	16712
323.85046	16684
323.87125	16651
323.89206	16640
323.91284	16541
323.93362	16637
323.95441	16670
323.97522	16616
323.996	16563
324.01678	16522
324.03757	16444
324.05835	16429
324.07913	16376
324.09995	16278
324.12073	16352
324.14151	16203
324.16229	16200
324.18307	16159
324.20386	16099
324.22467	16144
324.24545	16288
324.26624	16369
324.28702	16452
324.3078	16352
324.32858	16364
324.34937	16358
324.37015	16303
324.39093	16239
324.41171	16228
324.4325	16344
324.45328	16386
324.47406	16295
324.49484	16259
324.51563	16316
324.53641	16454
324.55719	16426
324.57797	16449
324.59875	16409
324.61954	16440
324.64032	16504
324.6611	16490
324.68188	16639
324.70267	16795
324.72345	16847
324.74423	16910
324.76501	16933
324.7858	17007
324.80658	17024
324.82733	16911
324.84811	16973
324.8689	17026
324.88968	17104
324.91046	17266
324.93124	17216
324.95203	17225
324.97278	17316
324.99356	17417
325.01434	17560
325.03513	17605
325.05591	17681
325.07666	17784
325.09744	17781
325.11823	17722
325.13901	17775
325.15976	17861
325.18054	18116
325.20132	18286
325.22211	18333
325.24286	18264
325.26364	18415
325.28442	18472
325.30518	18439
325.32596	18539
325.34674	18524
325.36749	18559
325.38828	18579
325.40906	18519
325.42981	18544
325.45059	18622
325.47137	18529
325.49213	18461
325.51291	18322
325.53366	18394
325.55444	18550
325.57523	18708
325.59598	18758
325.61676	18704
325.63751	18763
325.65829	18940
325.67905	19061
325.69983	19013
325.72058	18966
325.74136	19123
325.76215	19183
325.7829	19179
325.80368	19234
325.82443	19192
325.84518	19291
325.86597	19190
325.88672	19121
325.9075	19209
325.92825	19241
325.94904	19253
325.96979	19382
325.99057	19314
326.01132	19407
326.03207	19305
326.05286	19165
326.07361	19099
326.09439	19127
326.11514	19160
326.13589	19178
326.15668	19230
326.17743	19300
326.19818	19320
326.21896	19193
326.23972	19203
326.26047	19264
326.28125	19220
326.302	19300
326.32275	19335
326.34351	19475
326.36429	19337
326.38504	19251
326.40579	19345
326.42654	19424
326.44733	19548
326.46808	19526
326.48883	19657
326.50958	19583
326.53033	19501
326.55112	19445
326.57187	19396
326.59262	19500
326.61337	19520
326.63412	19567
326.65488	19622
326.67566	19747
326.69641	19849
326.71716	19816
326.73792	19767
326.75867	19754
326.77942	19812
326.80017	19810
326.82092	19785
326.84167	19839
326.86246	19867
326.88321	19823
326.90396	19720
326.92471	19684
326.94547	19742
326.96622	19802
326.98697	19956
327.00772	20033
327.02847	19933
327.04922	19849
327.06998	19903
327.09073	19931
327.11148	19952
327.13223	20005
327.15298	19922
327.17371	19904
327.19446	19877
327.21521	19891
327.23596	19895
327.25671	19984
327.27747	20054
327.29822	19942
327.31897	19964
327.33972	20123
327.36047	20095
327.3812	20169
327.40195	20076
327.4227	20121
327.44345	20070
327.4642	19995
327.48495	19738
327.50568	19751
327.52643	19739
327.54718	19719
327.56793	19938
327.58865	20085
327.60941	20144
327.63016	20044
327.65091	19995
327.67163	20008
327.69238	19975
327.71313	20131
327.73389	20324
327.75461	20535
327.77536	20612
327.79611	20561
327.81683	20467
327.83759	20689
327.85834	20787
327.87906	20852
327.89981	20900
327.92056	20888
327.94128	20920
327.96204	20864
327.98276	20722
328.00351	20654
328.02426	20668
328.04498	20795
328.06573	20852
328.08646	21135
328.10721	21306
328.12796	21281
328.14868	21304
328.16943	21387
328.19016	21496
328.21091	21566
328.23163	21641
328.25238	21749
328.2731	21834
328.29385	21787
328.31458	21785
328.33533	21805
328.35605	21767
328.37677	21740
328.39752	21747
328.41824	21861
328.439	21841
328.45972	21791
328.48047	21745
328.50119	21814
328.52191	21795
328.54266	21929
328.56339	21914
328.58411	21978
328.60486	21904
328.62558	21739
328.6463	21655
328.66705	21655
328.68777	21864
328.7085	21795
328.72925	21891
328.74997	22000
328.77069	21983
328.79144	21870
328.81216	21760
328.83289	21526
328.85361	21421
328.87436	21367
328.89508	21330
328.9158	21301
328.93652	21356
328.95728	21327
328.978	21195
328.99872	21126
329.01944	20974
329.04016	20960
329.06088	20865
329.08163	20905
329.10236	20760
329.12308	20515
329.1438	20237
329.16452	19798
329.18524	19566
329.20596	19129
329.22668	19008
329.24744	19083
329.26816	19117
329.28888	19007
329.3096	18793
329.33032	18527
329.35104	18449
329.37177	18511
329.39249	18540
329.41321	18618
329.43393	18648
329.45465	18642
329.47537	18543
329.49609	18526
329.51682	18512
329.53754	18491
329.55826	18489
329.57898	18522
329.5997	18558
329.62042	18419
329.64114	18398
329.66187	18354
329.68256	18268
329.70328	18163
329.724	18030
329.74472	18132
329.76544	18083
329.78616	18113
329.80688	18032
329.82761	18064
329.8483	18083
329.86902	18136
329.88974	18329
329.91046	18449
329.93118	18561
329.95187	18325
329.9726	18401
329.99332	18547
330.01404	18353
330.03476	18361
330.05545	18295
330.07617	18458
330.09689	18423
330.11758	18384
330.13831	18387
330.15903	18444
330.17975	18614
330.20044	18707
330.22116	18683
330.24188	18693
330.26257	18811
330.28329	18781
330.30402	18879
330.32471	19091
330.34543	19188
330.36615	19223
330.38684	19327
330.40756	19352
330.42825	19478
330.44897	19341
330.4697	19367
330.49039	19420
330.51111	19461
330.5318	19581
330.55252	19594
330.57321	19596
330.59393	19638
330.61462	19721
330.63535	19817
330.65604	20023
330.67676	20102
330.69745	20078
330.71817	20125
330.73886	20008
330.75958	19918
330.78027	19985
330.80099	20143
330.82169	20348
330.84238	20517
330.8631	20597
330.88379	20537
330.90451	20585
330.9252	20454
330.94589	20456
330.96661	20334
330.9873	20373
331.00803	20320
331.02872	20180
331.04941	20070
331.07013	20073
331.09082	19986
331.11151	19745
331.1322	19576
331.15292	19505
331.17361	19530
331.19431	19587
331.21503	19623
331.23572	19458
331.25641	19332
331.2771	19284
331.29782	19378
331.31851	19327
331.3392	19293
331.35989	19088
331.38058	18991
331.40131	18934
331.422	18954
331.44269	18746
331.46338	18685
331.48407	18514
331.50476	18384
331.52548	18206
331.54617	18158
331.56686	18113
331.58755	18026
331.60825	17981
331.62894	17888
331.64963	17813
331.67032	17516
331.69101	17342
331.7117	17193
331.73239	17143
331.75308	17034
331.7738	17033
331.79449	16980
331.81519	16970
331.83588	16940
331.85657	16816
331.87726	16701
331.89795	16680
331.91861	16583
331.9393	16647
331.95999	16564
331.98068	16580
332.00137	16499
332.02206	16445
332.04276	16467
332.06345	16495
332.08414	16488
332.10483	16443
332.12552	16472
332.14621	16418
332.16687	16397
332.18756	16337
332.20825	16380
332.22894	16359
332.24963	16460
332.27032	16398
332.29099	16424
332.31168	16525
332.33237	16610
332.35306	16580
332.37375	16603
332.39441	16707
332.4151	16682
332.43579	16775
332.45648	16888
332.47714	16957
332.49783	16997
332.51852	17047
332.53918	16979
332.55988	17054
332.58057	17133
332.60126	17164
332.62192	17390
332.64261	17477
332.6633	17467
332.68396	17543
332.70465	17673
332.72531	17771
332.746	17887
332.76669	18050
332.78735	18084
332.80804	18190
332.8287	18268
332.8494	18325
332.87009	18448
332.89075	18664
332.91144	18791
332.9321	18804
332.95279	19044
332.97345	19267
332.99414	19438
333.0148	19559
333.03549	19632
333.05615	19730
333.07684	19799
333.0975	19823
333.11819	19847
333.13885	19965
333.15955	20166
333.18021	20310
333.20087	20599
333.22156	20821
333.24222	20870
333.26291	21023
333.28357	21206
333.30423	21342
333.32492	21598
333.34558	21866
333.36624	22218
333.38693	22556
333.40759	22717
333.42825	22704
333.44894	22867
333.4696	23113
333.49026	23364
333.51096	23687
333.53162	23787
333.55228	23952
333.57294	24066
333.59363	23921
333.61429	23909
333.63495	24017
333.65561	24041
333.6763	24264
333.69696	24524
333.71762	24907
333.73828	25056
333.75894	25045
333.77963	25109
333.80029	25120
333.82095	25427
333.84161	25601
333.86227	25680
333.88293	25776
333.90359	25784
333.92429	25763
333.94495	25701
333.96561	25798
333.98627	25600
334.00693	25511
334.02759	25601
334.04825	25582
334.06891	25592
334.08957	25500
334.11023	25436
334.13089	25345
334.15155	25326
334.17221	25392
334.19287	25516
334.21353	25422
334.23419	25179
334.25485	24902
334.27551	24743
334.29617	24692
334.31683	24701
334.33749	24685
334.35815	24560
334.37881	24569
334.39948	24475
334.42014	24360
334.44077	23947
334.46143	23761
334.48209	23550
334.50275	23444
334.52341	23406
334.54407	23298
334.56473	23284
334.58536	23184
334.60602	22953
334.62668	22790
334.64734	22509
334.668	22423
334.68863	22219
334.70929	22180
334.72995	22025
334.75061	21959
334.77124	21811
334.7919	21526
334.81256	21329
334.83322	21058
334.85385	21038
334.87451	21070
334.89517	21036
334.9158	20905
334.93646	20601
334.95712	20339
334.97775	20259
334.99841	20296
335.01907	20274
335.0397	20468
335.06036	20418
335.08102	20394
335.10165	20182
335.12231	20138
335.14294	19997
335.1636	19969
335.18423	19993
335.2049	19900
335.22556	19811
335.24619	19774
335.26685	19675
335.28748	19696
335.30814	19512
335.32877	19374
335.34943	19303
335.37006	19157
335.39072	19186
335.41135	19075
335.43198	19105
335.45264	19167
335.47327	19118
335.49393	19206
335.51456	19261
335.53522	19450
335.55585	19274
335.57648	19183
335.59714	19226
335.61777	19325
335.63843	19247
335.65906	19116
335.67969	19133
335.70035	19356
335.72098	19343
335.74161	19268
335.76227	19212
335.7829	19243
335.80353	19299
335.82416	19467
335.84482	19424
335.86545	19469
335.88608	19477
335.90671	19530
335.92737	19527
335.948	19733
335.96863	19866
335.98926	19962
336.00992	20079
336.03055	20103
336.05118	20227
336.07181	20096
336.09244	20240
336.11307	20377
336.13373	20448
336.15436	20610
336.17499	20714
336.19562	20769
336.21625	20844
336.23688	20899
336.25751	21114
336.27814	21371
336.29877	21579
336.31943	21708
336.34006	21831
336.36069	21808
336.38132	21858
336.40195	22119
336.42258	22286
336.44321	22620
336.46384	22819
336.48447	23010
336.5051	23062
336.52573	23174
336.54636	23261
336.56699	23312
336.58762	23508
336.60822	23604
336.62885	23684
336.64948	23760
336.6701	23817
336.69073	23952
336.71136	23936
336.73199	23877
336.75262	23843
336.77325	23937
336.79388	24346
336.81448	24468
336.83511	24570
336.85574	24570
336.87637	24551
336.897	24645
336.9176	24976
336.93823	25103
336.95886	25089
336.97949	25073
337.00012	25197
337.02072	25178
337.04135	25243
337.06198	25275
337.08261	25267
337.10321	25234
337.12384	25079
337.14447	24846
337.16507	24982
337.1857	25099
337.20633	25007
337.22693	24963
337.24756	24971
337.26819	24886
337.28879	24789
337.30942	24748
337.33005	24632
337.35065	24670
337.37128	24574
337.39188	24514
337.41251	24492
337.43314	24409
337.45374	24382
337.47437	24307
337.49496	24230
337.51559	24246
337.53619	24128
337.55682	24144
337.57742	24149
337.59805	24085
337.61865	24032
337.63928	24001
337.65988	24100
337.68051	24179
337.70111	23980
337.72174	23997
337.74234	23770
337.76294	23639
337.78357	23539
337.80417	23517
337.8248	23532
337.8454	23565
337.866	23502
337.88663	23321
337.90723	23258
337.92786	23395
337.94846	23477
337.96906	23415
337.98969	23343
338.01028	23287
338.03088	23243
338.05148	23098
338.07211	23144
338.09271	23182
338.11331	23205
338.13394	23114
338.15454	22926
338.17514	22893
338.19574	22781
338.21637	22771
338.23697	22761
338.25757	22771
338.27817	22669
338.29877	22675
338.31937	22844
338.34	22869
338.3606	22923
338.3812	22858
338.40179	22747
338.42239	22695
338.44299	22609
338.46359	22619
338.48422	22446
338.50482	22540
338.52542	22549
338.54602	22549
338.56662	22632
338.58722	22707
338.60782	22771
338.62842	22859
338.64902	22753
338.66962	22708
338.69022	22725
338.71082	22622
338.73141	22655
338.75201	22620
338.77261	22533
338.79321	22659
338.81381	22858
338.83441	22982
338.85501	23028
338.87561	22976
338.89621	22973
338.91681	23002
338.93738	23134
338.95798	23394
338.97858	23471
338.99918	23635
339.01978	23738
339.04037	23636
339.06097	23741
339.08157	23921
339.10214	24043
339.12274	24236
339.14334	24364
339.16394	24352
339.18454	24210
339.20511	24054
339.22571	23935
339.24631	23935
339.26691	23993
339.28748	24213
339.30807	24541
339.32867	24883
339.34927	24981
339.36984	24857
339.39044	24844
339.41104	25127
339.43161	25450
339.45221	25445
339.47281	25571
339.49338	25694
339.51398	25653
339.53458	25705
339.55515	25703
339.57574	25689
339.59631	25608
339.61691	25633
339.63751	25788
339.65808	25874
339.67868	26054
339.69925	26148
339.71985	26064
339.74042	26094
339.76102	26103
339.78159	26203
339.80219	26408
339.82275	26584
339.84335	26428
339.86392	26311
339.88452	26255
339.90509	26407
339.92569	26529
339.94626	26570
339.96686	26739
339.98743	26700
340.008	26770
340.02859	26669
340.04916	26699
340.06976	26555
340.09033	26481
340.1109	26517
340.1315	26647
340.15207	26792
340.17264	26673
340.19324	26677
340.21381	26557
340.23438	26541
340.25497	26482
340.27554	26524
340.29611	26489
340.31668	26434
340.33728	26689
340.35785	26621
340.37842	26552
340.39899	26497
340.41959	26159
340.44016	26089
340.46072	26300
340.48129	26375
340.50189	26240
340.52246	26115
340.54303	25940
340.5636	25763
340.58417	25900
340.60474	25918
340.62531	26010
340.6459	26029
340.66647	26108
340.68704	26045
340.70761	26068
340.72818	26065
340.74875	25969
340.76932	26082
340.78989	26150
340.81046	26026
340.83102	25910
340.85159	25858
340.87216	25830
340.89273	25832
340.9133	25701
340.93387	25598
340.95444	25417
340.97501	25457
340.99557	25419
341.01614	25279
341.03671	25245
341.05728	25209
341.07785	25302
341.09842	25328
341.11899	25636
341.13956	25668
341.16013	25426
341.18066	25247
341.20123	24941
