# Columns are Wavelength, tx_c, tx_t, tx_l, tx_r, tx_b
378.98197 -0.00082 0.00163 0.00354 0.00137 0.00274
378.99079 0.00214 0.00296 0.00156 0.00300 -0.00071
378.99965 0.00536 0.00559 0.00056 0.00339 0.00338
379.00850 0.00183 0.00070 0.00182 0.00410 0.00183
379.01733 0.00325 -0.00266 -0.00127 0.00213 0.00099
379.02618 0.00436 0.00349 0.00210 0.00551 0.00408
379.03503 0.00000 0.00254 0.00340 -0.00200 0.00228
379.04386 0.00256 -0.00056 -0.00141 0.00000 -0.00142
379.05271 -0.00071 0.00042 -0.00070 -0.00014 -0.00183
379.06157 0.00451 0.00224 0.00000 0.00255 -0.00085
379.07039 0.00339 0.00308 0.00563 0.00312 0.00198
379.07925 -0.00255 -0.00225 0.00225 0.00114 0.00142
379.08810 0.00257 0.00169 0.00226 0.00143 0.00171
379.09693 -0.00085 0.00140 -0.00084 0.00000 0.00028
379.10578 -0.00342 0.00141 -0.00226 -0.00029 0.00057
379.11464 0.00656 0.00396 0.00482 0.00258 0.00399
379.12346 0.00440 0.00550 0.00184 0.00385 0.00156
379.13232 0.00169 0.00251 0.00279 0.00479 0.00197
379.14114 0.00028 -0.00362 -0.00195 0.00113 -0.00337
379.14999 0.00225 0.00559 0.00252 0.00452 0.00226
379.15882 0.00198 0.00056 -0.00028 0.00284 0.00170
379.16767 0.00171 0.00338 -0.00057 -0.00143 0.00171
379.17653 0.00671 0.00524 0.00383 0.00501 0.00071
379.18535 -0.00100 0.00127 0.00184 0.00186 -0.00271
379.19421 0.00316 -0.00114 0.00285 0.00201 0.00258
379.20303 0.00187 0.00385 -0.00071 0.00216 0.00244
379.21189 0.00143 0.00453 0.00312 -0.00057 -0.00143
379.22071 0.00301 0.00156 0.00299 0.00301 0.00157
379.22957 0.00316 0.00199 0.00427 0.00316 0.00201
379.23839 0.00388 0.00356 0.00071 0.00416 0.00187
379.24725 0.00330 0.00299 0.00527 0.00417 -0.00043
379.25610 0.00303 0.00442 0.00186 -0.00217 0.00216
379.26492 0.00388 0.00014 0.00157 0.00590 0.00359
379.27378 0.00515 0.00454 0.00228 0.00201 0.00286
379.28260 0.00260 0.00285 0.00258 0.00376 0.00317
379.29146 0.00058 0.00314 0.00286 0.00375 0.00144
379.30028 0.00418 0.00471 0.00043 0.00506 0.00562
379.30914 0.00318 0.00000 0.00115 0.00318 -0.00029
379.31796 -0.00058 0.00258 0.00345 0.00435 -0.00087
379.32679 0.00086 0.00314 -0.00086 0.00058 0.00231
379.33564 0.00406 0.00431 0.00201 0.00262 0.00174
379.34447 0.00072 0.00357 0.00300 0.00043 0.00216
379.35332 -0.00373 0.00114 0.00171 0.00115 0.00201
379.36215 0.00057 0.00056 0.00227 0.00515 0.00143
379.37100 0.00329 0.00440 0.00556 0.00704 0.00416
379.37982 0.00144 0.00342 0.00143 -0.00058 0.00230
379.38868 -0.00043 0.00443 0.00129 0.00419 0.00332
379.39750 0.00216 0.00271 0.00243 0.00389 -0.00130
379.40633 0.00516 0.00654 0.00314 0.00518 0.00086
379.41518 0.00258 0.00028 -0.00028 0.00057 0.00229
379.42401 0.00256 0.00000 -0.00141 -0.00028 0.00000
379.43286 -0.00057 0.00197 0.00028 -0.00028 0.00028
379.44169 0.00313 0.00226 0.00340 0.00343 0.00171
379.45051 0.00369 0.00366 0.00452 0.00342 0.00227
379.45937 0.00256 0.00225 0.00085 0.00456 0.00142
379.46819 -0.00071 0.00268 -0.00014 0.00128 0.00270
379.47705 -0.00071 0.00268 -0.00042 0.00043 0.00014
379.48587 -0.00157 0.00296 0.00014 0.00243 -0.00299
379.49469 0.00284 0.00505 0.00254 0.00512 0.00199
379.50355 0.00523 0.00182 0.00379 0.00241 0.00240
379.51237 0.00497 0.00211 0.00212 0.00270 0.00156
379.52119 0.00442 0.00127 0.00184 0.00129 0.00071
379.53004 0.00171 0.00311 0.00198 0.00200 0.00342
379.53887 0.00100 0.00352 0.00382 0.00243 0.00384
379.54769 0.00200 0.00369 -0.00114 0.00230 0.00229
379.55655 0.00545 0.00199 0.00171 0.00345 0.00344
379.56537 0.00215 0.00383 0.00356 0.00417 0.00358
379.57420 0.00129 0.00213 0.00014 -0.00014 -0.00244
379.58305 0.00259 0.00143 -0.00115 0.00116 0.00173
379.59188 -0.00101 -0.00043 0.00272 0.00072 -0.00187
379.60070 0.00545 0.00170 0.00085 0.00172 -0.00029
379.60953 -0.00387 0.00071 -0.00157 -0.00215 -0.00014
379.61838 -0.00086 0.00085 -0.00028 0.00114 0.00285
379.62720 0.00314 0.00964 0.00710 0.00458 0.00486
379.63603 -0.00185 -0.00127 -0.00127 -0.00071 0.00270
379.64488 0.00756 0.00382 0.00553 0.00129 0.00299
379.65371 0.00271 0.00495 0.00241 0.00386 0.00585
379.66253 0.00086 0.00113 0.00085 0.00057 -0.00171
379.67136 0.00728 0.00326 0.00780 0.00558 0.00328
379.68021 -0.00458 0.00000 -0.00085 -0.00029 0.00114
379.68904 0.00501 0.00071 0.00043 0.00158 0.00043
379.69786 0.00173 0.00057 0.00057 0.00433 0.00260
379.70669 0.00458 0.00454 0.00512 0.00630 0.00285
379.71551 0.00230 0.00171 0.00343 0.00086 0.00000
379.72437 0.00245 0.00529 0.00387 0.00448 0.00101
379.73319 0.00246 0.00443 0.00503 0.00449 0.00390
379.74201 -0.00029 0.00342 0.00172 0.00577 0.00086
379.75084 0.00359 0.00128 0.00043 0.00591 0.00273
379.75966 0.00289 0.00287 0.00058 0.00377 0.00260
379.76852 0.00115 0.00285 0.00802 0.00721 0.00403
379.77734 0.00216 0.00100 -0.00100 0.00245 0.00359
379.78617 0.00434 0.00229 0.00288 0.00087 0.00000
379.79499 -0.00014 0.00100 -0.00072 0.00160 0.00043
379.80382 0.00376 0.00372 0.00172 0.00203 0.00289
379.81264 0.00230 0.00000 0.00172 0.00259 0.00316
379.82150 0.00072 0.00099 0.00128 0.00330 0.00301
379.83031 0.00086 0.00028 0.00228 0.00172 -0.00086
379.83914 0.00115 0.00085 -0.00143 0.00259 0.00201
379.84796 0.00201 0.00227 0.00199 0.00345 0.00373
379.85678 -0.00014 0.00442 0.00358 0.00419 0.00389
379.86561 0.00231 0.00257 -0.00029 0.00260 0.00202
379.87443 0.00403 0.00228 -0.00286 0.00173 0.00230
379.88326 0.00316 0.00114 -0.00142 0.00317 0.00172
379.89208 0.00202 0.00029 0.00371 0.00231 0.00259
379.90094 0.00043 0.00214 0.00157 0.00620 0.00388
379.90976 0.00837 0.00487 0.00631 0.00376 0.00520
379.91859 0.00535 0.00157 0.00302 0.00710 0.00216
379.92741 0.00203 0.00344 -0.00173 0.00087 0.00058
379.93624 0.00505 0.00444 0.00359 0.00420 0.00246
379.94506 0.00288 0.00143 0.00057 0.00259 0.00316
379.95389 0.00400 0.00511 0.00511 0.00458 0.00515
379.96271 0.00642 0.00382 0.00213 0.00358 0.00499
379.97153 0.00286 0.00396 0.00256 0.00086 0.00143
379.98036 0.00242 0.00127 0.00213 0.00271 -0.00014
379.98918 0.00287 0.00114 -0.00057 0.00201 0.00057
379.99801 0.00272 -0.00014 -0.00214 0.00187 -0.00186
380.00683 0.00114 0.00000 0.00085 0.00228 0.00057
380.01566 0.00228 0.00366 0.00424 0.00285 -0.00085
380.02448 0.00353 0.00910 0.00126 0.00213 0.00212
380.03331 0.00225 0.00363 0.00308 0.00283 0.00169
380.04213 0.00283 0.00336 0.00084 0.00652 0.00000
380.05095 0.00085 0.00084 -0.00197 0.00397 0.00085
380.05977 0.00578 0.00154 0.00042 0.00269 0.00070
380.06860 0.00014 0.00406 0.00266 0.00354 0.00465
380.07742 0.00268 0.00266 0.00154 0.00553 0.00240
380.08624 0.00310 0.00251 0.00448 0.00254 0.00422
380.09507 -0.00014 0.00576 0.00267 0.00043 0.00071
380.10389 0.00353 0.00126 -0.00042 0.00638 0.00099
380.11272 0.00483 0.00366 0.00170 0.00142 0.00512
380.12154 -0.00085 0.00196 0.00450 0.00539 0.00283
380.13037 0.00128 0.00296 -0.00155 0.00071 0.00299
380.13919 -0.00014 0.00126 -0.00127 0.00071 0.00071
380.14802 -0.00229 0.00170 0.00426 0.00057 0.00314
380.15684 0.00259 0.00285 0.00372 0.00346 -0.00230
380.16564 0.00458 0.00198 0.00171 0.00373 0.00086
380.17446 0.00300 0.00297 0.00156 0.00673 0.00385
380.18329 0.00414 0.00749 -0.00099 0.00357 -0.00242
380.19211 -0.00200 0.00311 0.00170 0.00372 0.00285
380.20094 0.00458 0.00963 0.00312 0.00602 0.00200
380.20976 0.00157 0.00099 0.00213 0.00358 0.00214
380.21858 0.00171 0.00311 0.00255 0.00516 0.00086
380.22741 0.00426 0.00113 0.00198 0.00199 0.00227
380.23623 0.00284 0.00338 0.00310 0.00484 0.00709
380.24502 -0.00268 0.00294 0.00267 0.00383 0.00071
380.25384 0.00383 0.00295 0.00466 0.00470 0.00411
380.26267 -0.00057 0.00113 0.00169 0.00000 0.00142
380.27149 -0.00014 0.00014 0.00155 0.00184 -0.00071
380.28032 -0.00142 0.00282 0.00056 0.00685 0.00370
380.28914 0.00656 0.00226 0.00170 0.00286 -0.00057
380.29794 0.00654 0.00197 0.00170 0.00143 0.00341
380.30676 -0.00085 -0.00084 -0.00028 0.00256 0.00114
380.31559 0.00057 0.00056 0.00113 0.00372 -0.00114
380.32441 0.00043 0.00071 0.00242 0.00043 0.00158
380.33323 0.00057 0.00255 0.00654 0.00516 0.00372
380.34203 0.00243 0.00213 0.00071 0.00330 0.00300
380.35085 0.00200 0.00085 0.00085 0.00658 0.00285
380.35968 0.00185 0.00381 0.00354 0.00214 0.00499
380.36850 -0.00014 0.00380 0.00410 0.00242 0.00384
380.37733 -0.00043 0.00099 0.00156 0.00500 0.00243
380.38612 0.00100 0.00298 -0.00071 0.00444 0.00014
380.39495 0.00130 0.00214 0.00214 0.00072 0.00129
380.40377 0.00301 0.00327 0.00185 0.00244 0.00588
380.41259 0.00561 0.00356 0.00271 0.00130 0.00302
380.42138 0.00072 0.00043 0.00327 0.00444 0.00186
380.43021 0.00086 0.00114 -0.00086 0.00029 0.00144
380.43903 0.00185 -0.00127 -0.00042 0.00299 0.00412
380.44782 0.00242 0.00467 0.00440 0.00129 -0.00071
380.45665 0.00257 0.00538 0.00199 0.00143 0.00171
380.46547 0.00357 0.00326 -0.00014 0.00186 0.00100
380.47430 -0.00215 -0.00071 0.00014 0.00216 0.00014
380.48309 0.00344 0.00369 0.00228 0.00603 0.00659
380.49192 0.00331 0.00328 0.00472 0.00303 0.00244
380.50074 0.00228 0.00339 0.00227 0.00229 0.00370
380.50954 0.00528 0.00409 0.00609 0.00415 0.00470
380.51836 -0.00100 0.00297 0.00269 0.00072 0.00271
380.52719 0.00444 0.00383 0.00327 0.00330 0.00129
380.53598 -0.00086 -0.00199 -0.00114 -0.00432 0.00000
380.54481 -0.00114 0.00028 0.00254 -0.00342 -0.00227
380.55363 0.00171 0.00281 0.00310 0.00313 0.00199
380.56241 0.00299 0.00240 0.00014 0.00185 0.00128
380.57124 0.00568 0.00591 0.00367 0.00342 0.00511
380.58006 0.00384 0.00887 0.00409 0.00670 0.00327
380.58886 0.00715 0.00538 0.00199 0.00545 0.00229
380.59768 0.00085 -0.00085 0.00226 0.00343 0.00228
380.60648 0.00371 0.00000 0.00483 0.00429 0.00257
380.61530 0.00000 -0.00113 0.00085 -0.00199 -0.00114
380.62413 0.00341 0.00056 0.00394 0.00142 0.00368
380.63292 -0.00128 0.00211 0.00466 0.00185 0.00156
380.64175 0.00142 0.00000 0.00225 0.00398 0.00426
380.65054 0.00099 0.00464 0.00184 0.00442 0.00412
380.65937 0.00465 0.00546 0.00379 0.00665 0.00636
380.66819 0.00324 0.00349 0.00154 0.00522 0.00183
380.67699 0.00042 0.00154 0.00210 0.00268 0.00071
380.68581 -0.00297 -0.00014 0.00266 -0.00014 0.00155
380.69460 0.00056 0.00056 0.00588 0.00593 0.00423
380.70342 0.00495 0.00630 0.00014 0.00241 0.00212
380.71221 0.00085 -0.00141 0.00366 0.00540 0.00198
380.72104 0.00324 0.00210 0.00126 0.00127 0.00183
380.72983 0.00354 0.00547 0.00211 0.00496 -0.00014
380.73866 0.00184 0.00575 0.00436 0.00383 0.00156
380.74745 0.00155 -0.00014 0.00182 0.00127 0.00240
380.75628 0.00099 0.00211 0.00155 -0.00100 0.00411
380.76507 0.00213 -0.00014 0.00268 0.00213 0.00128
380.77390 0.00099 0.00321 0.00378 0.00268 0.00380
380.78269 0.00085 0.00338 0.00113 -0.00028 0.00028
380.79152 0.00253 0.00445 0.00752 0.00365 0.00281
380.80031 0.00085 0.00419 0.00224 0.00538 0.00282
380.80913 0.00552 0.00182 0.00267 -0.00043 -0.00099
380.81793 0.00512 0.00479 0.00706 0.00399 0.00710
380.82675 0.00409 0.00377 0.00238 0.00353 0.00211
380.83554 -0.00014 0.00238 0.00014 0.00382 0.00240
380.84436 -0.00028 0.00167 0.00028 0.00310 0.00225
380.85316 0.00226 0.00196 0.00084 0.00367 0.00000
380.86198 0.00436 0.00348 0.00405 0.00663 0.00352
380.87078 0.00438 0.00573 0.00379 0.00354 0.00296
380.87957 0.00410 0.00881 0.00154 0.00156 0.00381
380.88840 0.00283 0.00112 0.00422 0.00454 0.00397
380.89719 -0.00085 0.00422 0.00056 0.00228 -0.00113
380.90602 0.00553 0.00716 0.00493 0.00612 0.00184
380.91481 0.00284 0.00253 0.00085 0.00285 0.00000
380.92363 0.00668 0.00888 0.00410 0.00584 0.00469
380.93243 0.00299 0.00014 0.00381 0.00328 0.00043
380.94122 -0.00211 -0.00154 -0.00210 0.00042 -0.00099
380.95005 -0.00085 0.00307 0.00280 0.00057 0.00169
380.95883 0.00283 0.00309 0.00337 0.00510 0.00311
380.96763 0.00381 0.00377 0.00434 0.00551 0.00296
380.97645 0.00510 0.00056 0.00394 0.00256 0.00283
380.98525 0.00285 0.00339 0.00227 0.00371 -0.00057
380.99404 0.00429 0.00481 0.00000 0.00401 0.00114
381.00287 0.00474 0.00356 0.00385 0.00360 0.00100
381.01166 0.00403 0.00029 0.00114 0.00173 0.00115
381.02046 0.00244 0.00213 0.00556 0.00331 0.00531
381.02928 0.00746 0.00682 0.00200 0.00230 0.00516
381.03807 0.01738 0.00254 0.00255 -0.00114 0.00285
381.04687 0.00585 0.00071 0.00327 0.00157 0.00043
381.05569 0.00171 0.00283 -0.00057 0.00458 0.00570
381.06449 0.00527 0.00493 0.00438 0.00243 0.00270
381.07327 0.00302 0.00812 0.00585 0.00447 0.00216
381.08210 0.00571 0.00396 0.00283 0.00515 0.00457
381.09089 0.00301 0.00099 0.00499 -0.00043 0.00416
381.09969 0.00142 0.00254 0.00424 0.00257 0.00171
381.10848 0.00411 0.00435 0.00352 0.00241 0.00383
381.11731 0.00226 0.00392 0.00196 0.00254 0.00395
381.12610 0.00170 -0.00084 0.00000 0.00142 0.00226
381.13490 0.00184 0.00014 0.00352 0.00327 0.00156
381.14369 0.00184 0.00126 0.00211 0.00439 -0.00410
381.15252 0.00379 0.00431 0.00600 0.00970 0.00547
381.16131 0.00364 0.00417 0.00139 0.00506 0.00252
381.17010 0.00296 0.00516 0.00210 0.00466 0.00380
381.17889 0.00479 0.00112 0.00224 0.00170 0.00338
381.18771 0.00407 0.00292 0.00377 0.00240 0.00126
381.19651 0.00197 0.00364 0.00477 0.00113 0.00198
381.20530 0.00525 0.00295 0.00352 0.00157 0.00496
381.21410 0.00669 0.00410 0.00467 0.00300 0.00214
381.22289 0.00642 0.00551 0.00411 0.00358 0.00470
381.23172 0.00440 0.00379 0.00324 0.00384 0.00184
381.24051 0.00656 0.00480 0.00509 0.00143 0.00570
381.24931 0.00653 0.00647 0.00423 0.00313 0.00256
381.25810 0.00310 0.00196 0.00224 0.00621 0.00254
381.26690 0.00381 0.00938 0.00464 0.00495 0.00381
381.27569 0.00056 0.00084 0.00084 0.00085 0.00283
381.28450 0.00353 0.00350 0.00098 0.00071 0.00014
381.29330 0.00309 0.00278 0.00446 0.00704 0.00281
381.30209 0.00436 0.00293 0.00405 0.00550 0.00435
381.31089 0.00518 0.00236 0.00458 0.00239 0.00154
381.31968 0.00238 0.00541 0.00014 0.00154 0.00518
381.32848 0.00098 -0.00042 -0.00153 0.00098 -0.00210
381.33727 0.00349 0.00290 0.00263 0.00126 0.00265
381.34610 0.00140 0.00611 0.00418 0.00422 0.00308
381.35489 0.00364 0.00277 0.00501 0.00506 0.00168
381.36369 0.00042 0.00459 0.00460 0.00352 0.00379
381.37248 0.00309 0.00279 -0.00028 0.00565 0.00084
381.38128 0.00394 0.00000 0.00336 0.00395 0.00169
381.39006 0.00519 0.00348 0.00627 0.00633 0.00462
381.39885 0.00028 0.00084 0.00393 0.00198 0.00141
381.40765 0.00056 -0.00083 0.00000 -0.00084 0.00560
381.41644 0.00113 0.00419 0.00084 0.00085 0.00169
381.42524 0.00366 0.00195 0.00419 0.00451 0.00084
381.43403 0.00577 0.00404 0.00238 -0.00042 0.00604
381.44283 0.00449 0.00139 0.00446 0.00281 0.00168
381.45162 0.00239 0.00209 0.00488 0.00436 0.00126
381.46042 0.00421 0.00528 0.00251 0.00422 0.00028
381.46921 0.00238 0.00264 0.00321 0.00070 0.00070
381.47800 0.00365 0.00417 0.00530 0.00056 0.00140
381.48679 0.00198 0.00112 -0.00028 0.00482 0.00198
381.49559 0.00099 -0.00126 -0.00014 0.00241 0.00099
381.50438 0.00381 0.00098 0.00322 0.00241 0.00268
381.51318 0.00451 0.00698 0.00224 0.00536 0.00141
381.52197 0.00225 0.00335 0.00140 0.00226 -0.00028
381.53076 0.00028 0.00222 0.00306 0.00281 0.00112
381.53956 0.00378 0.00375 0.00153 0.00126 0.00490
381.54835 0.00462 0.00874 0.00125 0.00407 0.00238
381.55715 0.00141 0.00167 -0.00279 -0.00085 -0.00225
381.56594 0.00170 0.00280 0.00028 0.00199 0.00000
381.57473 0.00255 0.00590 0.00338 0.00455 0.00085
381.58352 -0.00056 0.00000 0.00337 0.00482 0.00113
381.59232 0.00397 0.00337 0.00197 0.00256 0.00397
381.60111 0.00169 0.00308 0.00112 0.00255 0.00085
381.60991 0.00282 0.00671 0.00280 0.00622 -0.00028
381.61870 0.00380 0.00209 0.00461 0.00522 0.00577
381.62750 0.00212 0.00518 0.00183 0.00213 0.00184
381.63629 0.00325 0.00657 0.00154 -0.00014 0.00410
381.64508 0.00184 0.00098 0.00239 0.00269 0.00212
381.65388 -0.00071 0.00377 0.00070 0.00297 0.00155
381.66263 0.00469 0.00324 0.00353 0.00612 0.00413
381.67143 0.00170 0.00252 0.00168 0.00085 0.00452
381.68022 0.00796 0.00253 -0.00197 -0.00057 0.00199
381.68902 0.00028 0.00224 0.00365 0.00368 0.00141
381.69781 0.00481 0.00618 0.00028 0.00227 0.00312
381.70661 0.00085 0.00281 0.00197 0.00227 0.00596
381.71540 0.00057 -0.00198 -0.00114 0.00086 0.00057
381.72420 0.00257 0.00452 0.00283 0.00257 0.00171
381.73296 0.00745 0.00539 0.00598 0.00431 0.00430
381.74176 0.00726 0.00155 0.00269 0.00329 0.00185
381.75054 0.00213 -0.00014 0.00099 0.00185 0.00468
381.75933 -0.00241 0.00519 0.00042 0.00156 0.00439
381.76813 0.00227 0.00478 0.00169 0.00256 0.00227
381.77689 0.00599 0.00367 0.00481 0.00686 0.00428
381.78569 0.00328 0.00297 0.00326 0.00415 0.00699
381.79448 -0.00086 0.00481 0.00142 0.00000 -0.00143
381.80328 -0.00100 0.00042 0.00042 0.00014 0.00014
381.81207 -0.00155 -0.00210 0.00210 0.00071 0.00127
381.82084 0.00352 0.00488 0.00266 0.00127 0.00267
381.82963 0.00225 0.00307 0.00279 0.00761 0.00393
381.83842 -0.00042 0.00460 0.00600 0.00409 0.00660
381.84721 0.00325 0.00406 0.00267 0.00411 0.00240
381.85601 0.00393 0.00641 0.00139 0.00536 0.00394
381.86477 0.00693 0.00238 0.00603 0.00467 0.00494
381.87357 0.00239 -0.00153 0.00154 0.00070 0.00183
381.88236 0.00239 0.00265 0.00349 0.00409 0.00352
381.89112 0.00154 0.00320 0.00153 0.00155 0.00267
381.89992 0.00480 0.00645 0.00534 0.00652 0.00424
381.90871 0.00508 0.00056 0.00365 0.00396 0.00028
381.91750 0.00791 0.00252 0.00561 0.00481 0.00395
381.92626 0.00454 0.00113 0.00763 0.00456 0.00454
381.93506 0.00056 -0.00056 0.00308 0.00226 0.00282
381.94385 0.00213 0.00267 0.00212 0.00384 0.00213
381.95262 0.00043 0.00437 0.00240 0.00557 -0.00242
381.96141 0.00497 0.00155 0.00550 0.00584 0.00270
381.97021 0.00686 0.00510 0.00484 0.00344 0.00428
381.97900 -0.00114 0.00452 0.00340 0.00372 0.00143
381.98777 0.00357 0.00551 0.00439 0.00415 -0.00043
381.99655 -0.00114 0.00704 0.00169 0.00313 0.00142
382.00531 0.00556 0.00663 0.00637 0.00414 0.00583
382.01411 0.00511 0.00028 0.00225 0.00483 0.00510
382.02290 0.00580 0.00294 0.00154 0.00213 0.00579
382.03167 0.00481 0.00700 0.00477 0.00113 0.00706
382.04046 0.00383 0.00493 0.00550 0.00498 0.00752
382.04926 0.00440 0.00577 0.00409 0.00128 0.00412
382.05802 0.00440 0.00745 0.00437 0.00497 0.00354
382.06682 0.00482 0.00337 0.00056 0.00199 0.00624
382.07560 0.00695 0.00548 0.00099 0.00612 0.00525
382.08437 0.00270 0.00661 0.00240 0.00100 0.00553
382.09316 0.00413 0.00437 0.00042 0.00613 0.00583
382.10193 0.00356 0.00748 0.00212 0.00157 0.00413
382.11072 0.00384 0.00380 0.00410 0.00414 0.00356
382.11948 0.00518 0.00314 0.00486 0.00433 0.00604
382.12828 0.00530 0.00581 0.00014 0.00043 0.00243
382.13707 0.00689 0.00683 0.00286 0.00230 0.00431
382.14584 0.00516 0.01022 0.00569 0.00632 0.00516
382.15462 0.00115 0.00456 0.00457 0.00173 0.00287
382.16339 0.00261 0.00573 0.00316 0.00290 0.00174
382.17218 0.00260 0.00458 0.00516 0.00638 0.00260
382.18095 0.00203 0.00632 0.00288 0.00582 0.00464
382.18974 0.00407 0.00346 0.00346 -0.00029 0.00494
382.19851 0.00291 0.00404 0.00491 0.00583 0.00291
382.20730 0.00523 0.01007 0.00606 0.00465 0.00058
382.21607 0.00361 0.00586 0.00358 0.00536 0.00447
382.22485 0.00130 0.00186 0.00187 0.00564 0.00303
382.23362 0.00535 0.00587 0.00387 0.00651 0.00679
382.24241 0.00667 0.00631 0.00547 0.00436 0.00377
382.25117 0.00725 0.01091 0.00115 0.00320 0.00550
382.25997 0.00131 0.00275 -0.00043 -0.00219 0.00015
382.26873 0.00278 0.00739 0.00740 0.00513 0.00657
382.27753 0.00175 0.00347 0.00289 -0.00058 0.00233
382.28629 0.00307 0.00681 0.00479 0.00308 0.00394
382.29509 0.00511 0.00882 0.00072 0.00601 0.00598
382.30384 0.00350 0.00463 0.00580 0.00146 0.00496
382.31264 0.00688 0.00246 0.00422 0.00279 0.00307
382.32140 0.00425 0.00653 0.00568 0.00279 0.00278
382.33017 0.00206 0.00116 -0.00029 0.00088 0.00059
382.33896 0.00350 0.00752 0.00464 0.00849 0.00642
382.34773 0.00351 0.00694 0.00668 0.00469 0.00701
382.35652 0.00479 0.00187 0.00649 0.00626 0.00537
382.36528 0.00087 0.00288 0.00029 0.00350 -0.00058
382.37407 0.00582 0.00230 0.00231 0.00466 0.00465
382.38283 0.00262 0.00347 -0.00174 0.00556 0.00204
382.39160 0.00467 0.00608 0.00436 0.00293 0.00496
382.40039 0.00598 0.00390 0.00246 0.00629 0.00248
382.40916 0.00537 0.00417 0.00245 0.00277 0.00886
382.41792 0.00550 0.00315 0.00317 0.00000 0.00318
382.42672 0.00072 0.00186 0.00244 0.00130 0.00303
382.43548 0.00652 0.00732 0.00417 0.00450 0.00709
382.44424 0.00115 0.00543 0.00430 0.00578 0.00577
382.45303 0.00389 0.00557 0.00845 0.00303 0.00791
382.46180 0.00230 0.00256 0.00029 0.00058 0.00345
382.47059 0.00374 0.00484 -0.00029 0.00519 0.00345
382.47935 0.00638 0.00373 0.00374 0.00581 0.00550
382.48812 0.00476 0.00643 0.00186 0.00622 0.00101
382.49688 0.00435 0.00115 0.00144 0.00406 0.00058
382.50567 0.00289 0.00574 0.00488 0.00464 0.00464
382.51443 0.00247 0.00502 0.00504 0.00596 0.00304
382.52320 0.00174 0.00403 0.00376 0.00058 0.00232
382.53199 0.00175 0.00403 0.00087 0.00292 0.00320
382.54076 0.00321 0.00462 0.00492 0.00672 0.00408
382.54952 0.00615 0.00900 0.00349 0.00675 0.00527
382.55832 0.00117 0.00319 0.00116 0.00088 0.00264
382.56708 0.00393 0.00765 0.00564 0.00365 0.00918
382.57584 0.00465 0.00547 0.00606 0.00350 0.00552
382.58460 0.00189 0.00417 0.00418 0.00305 0.00101
382.59340 0.00539 0.00360 0.00332 0.00364 0.00742
382.60216 0.00643 0.00406 0.00756 0.00528 0.00643
382.61092 0.00436 0.00576 0.00260 0.00466 0.00697
382.61969 0.00406 0.00632 0.00432 0.00494 0.00464
382.62845 0.00289 0.00402 0.00144 0.00551 0.00058
382.63725 0.00507 0.00100 0.00216 0.00537 0.00130
382.64600 -0.00173 -0.00257 0.00086 0.00492 0.00029
382.65477 0.00477 0.00272 -0.00129 0.00536 0.00130
382.66353 0.00479 0.00790 0.00792 0.00508 0.00537
382.67230 0.00435 0.00488 0.00259 0.00669 0.00639
382.68109 0.00711 0.00647 0.00476 0.00044 0.00740
382.68986 0.00290 0.00574 0.00633 0.00406 0.00203
382.69862 0.00422 0.00505 0.00564 0.00540 0.00248
382.70738 0.00480 0.00331 0.00650 0.00511 0.00597
382.71614 0.00393 0.00591 0.00072 0.00365 0.00538
382.72490 0.00378 0.00489 0.00462 0.00758 0.00755
382.73370 0.00523 0.00346 0.00289 0.00467 0.00437
382.74246 0.00378 0.00461 0.00260 0.00262 0.00029
382.75123 0.00203 0.00776 0.00634 0.00466 0.00116
382.75999 0.00390 0.00530 0.00618 0.00767 0.00535
382.76875 0.00549 0.00200 0.00373 0.00435 0.00376
382.77751 0.00882 0.00645 0.00675 0.00769 0.00274
382.78628 0.00524 0.00778 0.00665 0.00554 0.00523
382.79507 0.00277 0.00274 0.00362 0.00131 0.00102
382.80384 0.00581 0.00461 0.00550 0.00495 0.00785
382.81260 0.00480 0.00648 0.00332 0.00102 0.00218
382.82137 0.00319 0.00834 0.00230 0.00407 0.00203
382.83012 0.00506 0.00588 0.00588 0.00565 0.00506
382.83889 0.00449 0.00731 0.00619 0.00566 0.00998
382.84765 0.00521 0.00287 0.00029 0.00320 0.00406
382.85641 0.00393 0.00361 0.00130 0.00335 0.00131
382.86518 0.00408 0.00607 0.00493 0.00643 0.00554
382.87394 0.00421 0.00590 0.00390 0.00393 0.00479
382.88271 0.00465 0.00518 0.00520 0.00466 0.00524
382.89146 0.00436 0.00633 0.00462 0.00554 0.00494
382.90023 0.00506 0.00788 0.00445 0.00826 0.00650
382.90899 0.00217 0.00444 0.00559 0.00217 0.00765
382.91776 0.00247 0.00273 0.00418 0.00160 0.00362
382.92652 0.00627 0.00447 0.00622 0.00774 0.00538
382.93529 0.00726 0.00288 0.00259 0.00466 0.00783
382.94405 0.00463 0.00716 0.00948 0.00580 0.00636
382.95281 0.00678 0.00214 0.00386 0.00535 0.00764
382.96157 0.00995 0.00557 0.00530 0.00361 0.00476
382.97033 0.00518 0.00684 0.00772 0.00635 0.00633
382.97910 0.00896 0.00458 0.00632 0.00608 0.00434
382.98786 0.01052 0.00443 0.00530 0.00651 0.00562
382.99663 0.00639 0.00747 0.00605 0.00320 0.00638
383.00539 0.00696 0.00832 0.01066 0.00552 0.00550
383.01415 0.00303 0.00415 0.00014 0.00217 0.00447
383.02291 0.00461 0.00771 0.00372 0.00838 0.00836
383.03168 0.00938 0.00987 0.00988 0.00564 0.01284
383.04044 0.00733 0.00670 0.00386 0.00534 0.00503
383.04921 0.00646 0.00554 0.00185 0.00561 0.00588
383.05797 0.01059 0.00510 0.00312 0.00688 0.00743
383.06674 0.00817 0.00581 0.00526 0.00732 0.00701
383.07549 0.00588 0.00696 0.00413 0.00302 0.00559
383.08425 0.00733 0.01008 0.00470 0.00705 0.00731
383.09299 0.00704 0.00926 0.00872 0.00706 0.00962
383.10175 0.00923 0.00457 0.00658 0.00578 0.00865
383.11052 0.00791 0.00612 0.00185 0.00850 0.00733
383.11928 0.00618 0.00584 0.00642 0.00389 0.00474
383.12804 0.01005 0.00711 0.00514 0.00490 0.00891
383.13680 0.01049 0.00584 0.00787 0.00794 0.00792
383.14557 0.01151 0.00769 0.00627 0.01066 0.00748
383.15433 0.01025 0.00701 0.00702 0.01229 0.01255
383.16307 0.00909 0.00872 0.00875 0.00911 0.00880
383.17183 0.00847 0.00953 0.00870 0.00936 0.00791
383.18060 0.00488 0.00455 0.00428 0.00893 0.00890
383.18935 0.00689 0.01023 0.00370 0.00432 0.00775
383.19812 0.00704 0.01127 0.00529 0.00563 0.00937
383.20688 0.00968 0.00787 0.00445 0.01029 0.00737
383.21561 0.01211 0.00913 0.01002 0.00809 0.00663
383.22438 0.00620 0.00500 0.00501 0.00391 0.00679
383.23314 0.00908 0.00671 0.00215 0.00622 0.01024
383.24190 0.00833 0.00940 0.00914 0.00864 0.00949
383.25066 0.00417 0.00528 0.00329 0.00764 0.00561
383.25940 0.00677 0.00756 0.00386 0.00563 0.00763
383.26816 0.00797 0.01018 0.00561 0.00711 0.00939
383.27693 0.00465 0.00776 0.00576 0.00756 0.00493
383.28569 0.00679 0.00502 0.00963 0.00682 0.00651
383.29443 0.00827 0.00531 0.00417 0.00917 0.00624
383.30318 0.00596 0.00792 0.00794 0.00713 0.00915
383.31195 0.00813 0.00805 0.00807 0.01105 0.00988
383.32071 0.01058 0.01190 0.01078 0.00974 0.01027
383.32944 0.00779 0.00628 0.00773 0.00694 0.00808
383.33821 0.00792 0.00926 0.00586 0.00706 0.00647
383.34697 0.00967 0.00843 0.00559 0.00593 0.00677
383.35573 0.00998 0.01104 0.00790 0.00855 0.00737
383.36446 0.00811 0.00891 0.00605 0.01076 0.00810
383.37323 0.01245 0.01580 0.00921 0.01628 0.01158
383.38199 0.01081 0.00694 0.00378 0.00732 0.00584
383.39073 0.01011 0.00770 0.00597 0.01043 0.00863
383.39949 0.00985 0.01120 0.00833 0.00516 0.00690
383.40825 0.00778 0.01121 0.00744 0.00575 0.00837
383.41698 0.00704 0.00843 0.00408 0.00412 0.00557
383.42575 0.00732 0.00667 0.00698 0.00764 0.00965
383.43451 0.00759 0.00637 0.00581 0.00909 0.00439
383.44325 0.01329 0.01113 0.01000 0.01243 0.01328
383.45201 0.00910 0.00959 0.00728 0.00736 0.01056
383.46076 0.00556 0.00783 0.00378 0.00528 0.00819
383.46950 0.00795 0.00934 0.00497 0.01123 0.00825
383.47826 0.00809 0.01179 0.00861 0.00870 0.01014
383.48700 0.01257 0.01593 0.01248 0.01466 0.01137
383.49576 0.00918 0.00677 0.00650 0.00597 0.00830
383.50453 0.00780 0.00803 0.00517 0.01189 0.00549
383.51325 0.00799 0.00590 0.00534 0.00568 0.00798
383.52202 0.00973 0.01366 0.00763 0.00975 0.01175
383.53075 0.00679 0.00816 0.00703 0.00738 0.00911
383.53952 0.00623 0.00732 0.00532 0.00595 0.00767
383.54828 0.00913 0.00933 0.00703 0.01120 0.00827
383.55702 0.00998 0.00730 0.00732 0.00825 0.00939
383.56577 0.00869 0.01176 0.00719 0.01131 0.00840
383.57450 0.00884 0.00789 0.00447 0.00508 0.00565
383.58327 0.01045 0.01555 0.00952 0.00989 0.01103
383.59200 0.00728 0.00749 0.00954 0.00584 0.00582
383.60077 0.00932 0.01243 0.00724 0.01023 0.00962
383.60953 0.00670 0.00547 0.00317 0.00437 0.00610
383.61826 0.00655 0.01110 0.00304 0.00890 0.00509
383.62702 0.00655 0.00706 0.00390 0.00569 0.00568
383.63576 0.00708 0.00530 0.00818 0.00652 0.00680
383.64452 0.01274 0.00745 0.00632 0.01189 0.00694
383.65326 0.00765 0.01044 0.00473 0.00881 0.00822
383.66202 0.01087 0.00991 0.00447 0.00538 0.00623
383.67075 0.00754 0.00863 0.00461 0.00581 0.00580
383.67951 0.00492 0.00603 0.00432 0.00697 0.00609
383.68825 0.00993 0.01299 0.00729 0.00650 0.00994
383.69698 0.00763 0.00471 0.00529 0.00736 0.00791
383.70574 0.00574 0.00711 0.00314 0.00316 0.00890
383.71448 0.00701 0.01093 0.00953 0.00905 0.01074
383.72323 0.00573 0.00851 0.00455 0.00345 0.00373
383.73197 0.00417 0.00840 0.00185 0.00504 0.00560
383.74073 0.01211 0.01086 0.00773 0.01298 0.01238
383.74947 0.00981 0.01085 0.00917 0.00751 0.00980
383.75823 0.01330 0.01117 0.00832 0.01071 0.00983
383.76697 0.00996 0.01016 0.00674 0.00969 0.00881
383.77569 0.01367 0.01098 0.00871 0.01054 0.00965
383.78446 0.01294 0.00941 0.00915 0.01213 0.00633
383.79319 0.01200 0.00990 0.00847 0.00739 0.00853
383.80196 0.01025 0.00872 0.00386 0.01259 0.01255
383.81069 0.01227 0.01102 0.00990 0.01260 0.01486
383.81941 0.00850 0.00927 0.00615 0.00881 0.00878
383.82818 0.01357 0.01143 0.01232 0.01215 0.01067
383.83691 0.00724 0.01146 0.01062 0.00781 0.01098
383.84568 0.01160 0.00976 0.00605 0.00958 0.00985
383.85441 0.00813 0.01007 0.00865 0.01251 0.01044
383.86315 0.01164 0.00808 0.01041 0.00700 0.00844
383.87190 0.01044 0.01179 0.00748 0.00930 0.01188
383.88064 0.00466 0.00951 0.00665 0.00847 0.01047
383.88937 0.01002 0.00905 0.00533 0.00886 0.00913
383.89814 0.00885 0.01049 0.00936 0.01091 0.01261
383.90687 0.01271 0.01029 0.00831 0.01041 0.00981
383.91560 0.01270 0.01200 0.01204 0.01156 0.01067
383.92436 0.01398 0.01442 0.01132 0.01142 0.01110
383.93309 0.01309 0.01385 0.01301 0.01227 0.01452
383.94183 0.01373 0.01360 0.01105 0.01058 0.01228
383.95056 0.01058 0.00933 0.00620 0.00857 0.00943
383.95933 0.01165 0.01211 0.00924 0.01109 0.01047
383.96805 0.01379 0.01164 0.00993 0.01118 0.01145
383.97679 0.01921 0.01239 0.00838 0.01311 0.01163
383.98555 0.00726 0.01064 0.00952 0.01136 0.01073
383.99429 0.01015 0.00948 0.00950 0.00872 0.01276
384.00302 0.01106 0.01212 0.01013 0.01488 0.01136
384.01175 0.01314 0.00984 0.01015 0.00644 0.01080
384.02051 0.00889 0.01257 0.00912 0.00774 0.01093
384.02925 0.00784 0.01007 0.01151 0.01191 0.00986
384.03798 0.01595 0.01493 0.00921 0.01046 0.01652
384.04672 0.00712 0.00820 0.00620 0.00771 0.00770
384.05545 0.00886 0.01366 0.01197 0.01237 0.01175
384.06420 0.01197 0.00839 0.00783 0.01024 0.01050
384.07294 0.01283 0.01243 0.00898 0.00937 0.01401
384.08167 0.01033 0.01311 0.01199 0.01181 0.01265
384.09041 0.01338 0.01009 0.00925 0.01138 0.00873
384.09914 0.00960 0.01067 0.01156 0.00994 0.00844
384.10790 0.01301 0.01200 0.01030 0.01069 0.00948
384.11663 0.00995 0.01161 0.00814 0.01467 0.01610
384.12537 0.01482 0.01322 0.01038 0.00845 0.01220
384.13410 0.01267 0.00937 0.00883 0.00861 0.01121
384.14284 0.01523 0.01394 0.01225 0.01031 0.01406
384.15156 0.01032 0.01194 0.00822 0.01413 0.01089
384.16033 0.01294 0.01396 0.01227 0.01034 0.01204
384.16906 0.01559 0.01429 0.00940 0.01066 0.01180
384.17779 0.01422 0.01294 0.00518 0.01163 0.01074
384.18653 0.01547 0.01276 0.01021 0.01088 0.01546
384.19526 0.01811 0.01190 0.01222 0.01581 0.01115
384.20399 0.01213 0.01546 0.00718 0.01360 0.01099
384.21272 0.01144 0.01133 0.01281 0.01495 0.01259
384.22146 0.01258 0.01190 0.00790 0.01060 0.01141
384.23022 0.01261 0.01305 0.00821 0.01148 0.01260
384.23896 0.01592 0.01746 0.01322 0.01132 0.01619
384.24768 0.01286 0.01187 0.00875 0.01231 0.01343
384.25642 0.01345 0.01047 0.00876 0.01434 0.01517
384.26515 0.01402 0.01619 0.00933 0.00884 0.00880
384.27389 0.01413 0.01344 0.01147 0.01272 0.01701
384.28262 0.01743 0.01158 0.01360 0.01258 0.01657
384.29135 0.01491 0.01678 0.01539 0.01175 0.01374
384.30008 0.01547 0.01502 0.01277 0.01638 0.01517
384.30881 0.01269 0.01228 0.01259 0.01186 0.01555
384.31755 0.01341 0.01672 0.00988 0.01693 0.01457
384.32628 0.01891 0.01439 0.01329 0.01283 0.01336
384.33501 0.01396 0.01267 0.01386 0.01050 0.01250
384.34374 0.01512 0.01557 0.01734 0.01749 0.01539
384.35248 0.01199 0.01417 0.01074 0.01054 0.01692
384.36121 0.01677 0.01808 0.01436 0.01329 0.01911
384.36995 0.01708 0.01460 0.01349 0.01244 0.01940
384.37867 0.01572 0.01645 0.01445 0.01724 0.01660
384.38741 0.01627 0.01643 0.01502 0.01663 0.01627
384.39614 0.01686 0.02015 0.01530 0.01719 0.01977
384.40488 0.01393 0.01378 0.01180 0.01394 0.01332
384.41361 0.01668 0.01163 0.00878 0.01321 0.01290
384.42233 0.01758 0.01652 0.01369 0.01586 0.01522
384.43107 0.01708 0.01550 0.01180 0.01684 0.01650
384.43980 0.01406 0.01336 0.01138 0.01002 0.01407
384.44854 0.01615 0.01657 0.01347 0.01563 0.01931
384.45727 0.01647 0.01659 0.01579 0.01592 0.01762
384.46600 0.01632 0.01760 0.01704 0.01463 0.01429
384.47473 0.01614 0.01627 0.01576 0.01473 0.01441
384.48344 0.01507 0.01521 0.01354 0.01483 0.01567
384.49217 0.01186 0.01576 0.01149 0.01101 0.01503
384.50091 0.01547 0.01303 0.01594 0.01579 0.01748
384.50963 0.01633 0.01760 0.01591 0.01462 0.01574
384.51837 0.01663 0.01932 0.01565 0.01752 0.02006
384.52710 0.01550 0.02164 0.01798 0.01902 0.01952
384.53584 0.02030 0.01638 0.01381 0.01686 0.01537
384.54457 0.01585 0.01599 0.01230 0.01968 0.01383
384.55329 0.01720 0.01819 0.01272 0.01285 0.01718
384.56200 0.01838 0.01877 0.01651 0.01723 0.01868
384.57073 0.02188 0.01907 0.01883 0.01873 0.02129
384.57947 0.01893 0.01847 0.01388 0.01256 0.01602
384.58820 0.01834 0.01645 0.01504 0.01375 0.01689
384.59693 0.01897 0.01621 0.01282 0.01524 0.01694
384.60566 0.02164 0.01941 0.01547 0.01588 0.01960
384.61437 0.02103 0.01765 0.01484 0.01960 0.01931
384.62310 0.02486 0.02201 0.01716 0.01966 0.01960
384.63184 0.01946 0.01812 0.01354 0.01746 0.02030
384.64056 0.02230 0.02122 0.01462 0.02087 0.02201
384.64930 0.02000 0.01838 0.01756 0.01858 0.02321
384.65800 0.02350 0.02272 0.01963 0.01949 0.02148
384.66673 0.02012 0.01819 0.01275 0.01693 0.02536
384.67547 0.01861 0.01812 0.01444 0.01603 0.02149
384.68419 0.01722 0.02115 0.01280 0.01464 0.01842
384.69290 0.01857 0.01868 0.01525 0.02155 0.02151
384.70163 0.02005 0.02188 0.01324 0.01716 0.02092
384.71037 0.01965 0.01829 0.01345 0.01825 0.02108
384.71909 0.02407 0.02069 0.01640 0.01573 0.02320
384.72780 0.02310 0.02258 0.01660 0.01939 0.02364
384.73653 0.02005 0.02214 0.01673 0.01659 0.01831
384.74527 0.02310 0.02058 0.01459 0.01707 0.02167
384.75400 0.02238 0.01963 0.01562 0.02072 0.02066
384.76270 0.01998 0.02270 0.01899 0.01973 0.02437
384.77143 0.02207 0.02101 0.01671 0.02064 0.02266
384.78017 0.02374 0.02033 0.01344 0.02115 0.02081
384.78887 0.02570 0.02372 0.01950 0.02575 0.02221
384.79760 0.02553 0.02384 0.01841 0.02062 0.02494
384.80633 0.02723 0.02814 0.01812 0.02409 0.02433
384.81503 0.02165 0.03121 0.02094 0.02083 0.02510
384.82377 0.02143 0.02352 0.01408 0.02033 0.01853
384.83250 0.02476 0.02050 0.01596 0.02219 0.02302
384.84120 0.02634 0.02434 0.01723 0.01941 0.02543
384.84993 0.02656 0.02147 0.01405 0.02171 0.02311
384.85867 0.02348 0.02498 0.01419 0.02009 0.02494
384.86737 0.02655 0.02457 0.01715 0.02224 0.02769
384.87611 0.02571 0.02578 0.01629 0.02720 0.02655
384.88483 0.02360 0.02280 0.01566 0.02104 0.02155
384.89354 0.02845 0.02388 0.01673 0.02157 0.02701
384.90227 0.02511 0.02802 0.01972 0.02661 0.03003
384.91097 0.02597 0.02402 0.01745 0.02490 0.02367
384.91971 0.02716 0.02461 0.02029 0.02371 0.02831
384.92843 0.02930 0.02751 0.02180 0.02612 0.03103
384.93714 0.02456 0.02898 0.02062 0.02404 0.02427
384.94587 0.02704 0.02476 0.01646 0.02540 0.02673
384.95458 0.02942 0.02799 0.02085 0.02714 0.02798
384.96330 0.02422 0.02485 0.02261 0.02515 0.02912
384.97204 0.02599 0.02402 0.01974 0.02431 0.02423
384.98074 0.02570 0.02831 0.01772 0.02429 0.02161
384.98948 0.02760 0.02764 0.02021 0.02648 0.02817
384.99818 0.02708 0.02111 0.01996 0.02655 0.02647
385.00691 0.02688 0.02691 0.01922 0.02490 0.02635
385.01561 0.02881 0.02766 0.01999 0.02653 0.02935
385.02435 0.02421 0.02653 0.02088 0.02600 0.02393
385.03305 0.02257 0.02893 0.02069 0.02640 0.02601
385.04177 0.02756 0.02874 0.02016 0.02734 0.02750
385.05048 0.02558 0.02415 0.01762 0.02561 0.02700
385.05921 0.02973 0.02858 0.02173 0.02452 0.02885
385.06792 0.02509 0.02599 0.01885 0.02689 0.02914
385.07665 0.03276 0.02842 0.02387 0.03048 0.03396
385.08535 0.03156 0.02781 0.02177 0.02755 0.02981
385.09408 0.02837 0.02699 0.02093 0.02934 0.03073
385.10279 0.02957 0.02958 0.02094 0.03022 0.03043
385.11152 0.03404 0.02901 0.02301 0.02647 0.03018
385.12022 0.02964 0.02674 0.02190 0.02646 0.02995
385.12895 0.03087 0.03029 0.02370 0.03097 0.02997
385.13766 0.03104 0.03274 0.02185 0.02848 0.02843
385.14636 0.03046 0.03101 0.02358 0.03083 0.03103
385.15509 0.03610 0.03139 0.02681 0.02852 0.03284
385.16379 0.04169 0.03724 0.03263 0.03676 0.04017
385.17252 0.03301 0.03502 0.02173 0.02717 0.03149
385.18123 0.03449 0.03179 0.02024 0.03102 0.03094
385.18993 0.03511 0.02687 0.02699 0.02723 0.03593
385.19866 0.03808 0.02991 0.02505 0.03111 0.03372
385.20736 0.03364 0.03274 0.02208 0.03075 0.03569
385.21610 0.03518 0.03279 0.02622 0.03349 0.03460
385.22480 0.03398 0.03249 0.02733 0.03403 0.03397
385.23350 0.03446 0.03238 0.02993 0.03837 0.03771
385.24223 0.03621 0.03445 0.03165 0.03460 0.03800
385.25094 0.03734 0.03876 0.03151 0.03711 0.04345
385.25964 0.04039 0.03911 0.03200 0.03702 0.03980
385.26838 0.03823 0.03638 0.02955 0.03626 0.03913
385.27707 0.03729 0.03376 0.02721 0.03448 0.03555
385.28577 0.03888 0.03395 0.02993 0.03256 0.03921
385.29451 0.03917 0.04019 0.03256 0.03775 0.04143
385.30321 0.03858 0.03908 0.03281 0.03778 0.04410
385.31191 0.03993 0.03926 0.03357 0.03590 0.04018
385.32064 0.04074 0.03981 0.03155 0.03385 0.04187
385.32935 0.04146 0.03563 0.03053 0.03398 0.04091
385.33805 0.04314 0.04299 0.03359 0.03745 0.04634
385.34678 0.04522 0.03764 0.03372 0.03840 0.04232
385.35548 0.04826 0.04520 0.03749 0.04048 0.04764
385.36419 0.04171 0.03900 0.03125 0.04127 0.03990
385.37289 0.04314 0.04246 0.03353 0.04086 0.04781
385.38163 0.04460 0.04043 0.03674 0.04006 0.04578
385.39032 0.04741 0.04464 0.03123 0.04022 0.04557
385.39902 0.04801 0.04122 0.03554 0.03501 0.04626
385.40776 0.04359 0.04254 0.03632 0.03902 0.04213
385.41646 0.04696 0.04391 0.03773 0.04209 0.04692
385.42516 0.04809 0.04423 0.03355 0.03960 0.04892
385.43386 0.04816 0.04248 0.03459 0.03898 0.04546
385.44257 0.04826 0.04636 0.03907 0.04349 0.05286
385.45130 0.05371 0.04614 0.03532 0.04350 0.04797
385.46000 0.04929 0.04484 0.03976 0.04162 0.05067
385.46870 0.05381 0.04438 0.03701 0.04318 0.05227
385.47741 0.05114 0.04716 0.04302 0.04922 0.05510
385.48611 0.05272 0.05013 0.04032 0.04559 0.05553
385.49484 0.05407 0.05038 0.04159 0.04547 0.05780
385.50354 0.05370 0.05086 0.04099 0.04712 0.05079
385.51225 0.05427 0.05116 0.04116 0.04825 0.05740
385.52095 0.05301 0.05281 0.04030 0.04758 0.05789
385.52964 0.05719 0.05158 0.04422 0.04842 0.05693
385.53835 0.06089 0.05480 0.04492 0.04849 0.05975
385.54708 0.05995 0.05193 0.04403 0.05227 0.05791
385.55579 0.06199 0.05629 0.04694 0.04974 0.06342
385.56448 0.06140 0.05767 0.04541 0.05050 0.06247
385.57319 0.06316 0.06117 0.04685 0.05112 0.06285
385.58189 0.06473 0.06055 0.04755 0.05816 0.06871
385.59060 0.06318 0.05852 0.04634 0.05292 0.06752
385.59929 0.06520 0.05948 0.04761 0.05294 0.06692
385.60800 0.06803 0.06102 0.04747 0.05633 0.06766
385.61670 0.07244 0.06172 0.04932 0.05840 0.06890
385.62544 0.07036 0.06678 0.04939 0.05949 0.07342
385.63414 0.06947 0.06409 0.04775 0.05404 0.07053
385.64284 0.07424 0.06400 0.04603 0.06012 0.07308
385.65154 0.07196 0.06712 0.05172 0.05893 0.07333
385.66024 0.07501 0.06643 0.05302 0.06289 0.07416
385.66895 0.07888 0.07365 0.05265 0.06488 0.07867
385.67764 0.07788 0.06601 0.05410 0.06253 0.08037
385.68635 0.07749 0.06947 0.05638 0.06364 0.08036
385.69505 0.08143 0.07633 0.05062 0.06602 0.08201
385.70376 0.07907 0.07289 0.05606 0.06833 0.08206
385.71245 0.08260 0.07055 0.05561 0.07184 0.08376
385.72116 0.08738 0.07597 0.05362 0.06897 0.08151
385.72986 0.08765 0.08254 0.05853 0.06996 0.08880
385.73857 0.08779 0.07866 0.05691 0.07229 0.08732
385.74726 0.08545 0.08127 0.05545 0.06963 0.08653
385.75597 0.08908 0.08248 0.05707 0.07867 0.08734
385.76467 0.09025 0.08311 0.05658 0.07231 0.09143
385.77337 0.08727 0.07857 0.05642 0.07627 0.08898
385.78207 0.09568 0.08461 0.05925 0.07615 0.09390
385.79077 0.09644 0.09001 0.06285 0.07724 0.09082
385.79948 0.09553 0.08960 0.06166 0.08332 0.09721
385.80818 0.09650 0.08891 0.06568 0.07864 0.09762
385.81688 0.09503 0.08913 0.06147 0.07902 0.09723
385.82558 0.10161 0.09075 0.06221 0.08201 0.10379
385.83429 0.10466 0.08866 0.06393 0.08295 0.10301
385.84299 0.10167 0.09112 0.06625 0.08268 0.10146
385.85169 0.10593 0.09476 0.06474 0.08599 0.10208
385.86039 0.10891 0.09651 0.07107 0.09047 0.10650
385.86907 0.11129 0.09626 0.07092 0.09546 0.10739
385.87777 0.10530 0.09986 0.06895 0.09014 0.10935
385.88647 0.11404 0.10166 0.06710 0.09001 0.10992
385.89517 0.10809 0.10214 0.06802 0.09523 0.11224
385.90387 0.11354 0.10202 0.06882 0.09832 0.11090
385.91258 0.11786 0.10270 0.06833 0.09284 0.11385
385.92127 0.11321 0.10702 0.07153 0.09983 0.11356
385.92998 0.11825 0.10470 0.07029 0.10000 0.11295
385.93865 0.12263 0.11185 0.07211 0.10277 0.11915
385.94735 0.11861 0.11006 0.07531 0.10223 0.12507
385.95605 0.12436 0.11275 0.07704 0.11010 0.12095
385.96476 0.12280 0.11187 0.08075 0.10960 0.12173
385.97346 0.12624 0.11917 0.07593 0.11058 0.12826
385.98216 0.13066 0.11464 0.07957 0.10826 0.12640
385.99086 0.12913 0.11779 0.08036 0.11398 0.13199
385.99954 0.12906 0.11874 0.08095 0.11457 0.12546
386.00824 0.12658 0.11638 0.07700 0.10986 0.12780
386.01693 0.13448 0.12174 0.08187 0.12185 0.13361
386.02564 0.13373 0.12263 0.07765 0.11503 0.13111
386.03434 0.13357 0.12004 0.08248 0.11576 0.13488
386.04302 0.13473 0.12816 0.08538 0.11856 0.13818
386.05171 0.13711 0.12375 0.08508 0.12361 0.13949
386.06042 0.13824 0.12626 0.08864 0.12736 0.14084
386.06912 0.14078 0.12873 0.08934 0.12622 0.14363
386.07780 0.13679 0.13139 0.08487 0.12622 0.14288
386.08649 0.14477 0.13567 0.08946 0.13074 0.14780
386.09520 0.14490 0.13249 0.08779 0.13549 0.14804
386.10390 0.14984 0.13438 0.09139 0.13006 0.15120
386.11258 0.14763 0.14264 0.09088 0.13824 0.15293
386.12127 0.15507 0.13626 0.09543 0.14365 0.15846
386.12998 0.15146 0.13830 0.09193 0.14086 0.15611
386.13865 0.15577 0.13886 0.09790 0.14075 0.15417
386.14734 0.16142 0.14310 0.09634 0.14773 0.15751
386.15605 0.15899 0.14487 0.10099 0.14800 0.16113
386.16475 0.15977 0.14613 0.10509 0.14805 0.16575
386.17343 0.16585 0.15046 0.10344 0.14804 0.16201
386.18212 0.16607 0.14782 0.09892 0.15757 0.16692
386.19083 0.16415 0.15213 0.10097 0.16120 0.17082
386.19950 0.16845 0.15326 0.10441 0.15709 0.17055
386.20821 0.17495 0.15791 0.10551 0.16066 0.18039
386.21690 0.17441 0.15517 0.11013 0.16498 0.18129
386.22558 0.17902 0.16102 0.10922 0.16410 0.18066
386.23428 0.17945 0.16719 0.10952 0.17095 0.18486
386.24299 0.17961 0.16488 0.11538 0.17793 0.18824
386.25165 0.18594 0.16619 0.11607 0.17840 0.19229
386.26035 0.19400 0.16974 0.11980 0.17981 0.18999
386.26903 0.18749 0.17226 0.12003 0.18219 0.19489
386.27773 0.19680 0.17502 0.12476 0.17971 0.19823
386.28643 0.19802 0.17539 0.12125 0.18487 0.20106
386.29510 0.19605 0.17554 0.12261 0.18828 0.20257
386.30381 0.20030 0.17650 0.12622 0.19124 0.20637
386.31247 0.20234 0.18326 0.12957 0.19972 0.21068
386.32118 0.20464 0.18384 0.13035 0.20163 0.21060
386.32988 0.20609 0.18314 0.13042 0.20050 0.21771
386.33856 0.21187 0.19052 0.13236 0.20953 0.22016
386.34725 0.21235 0.19117 0.13487 0.21316 0.22421
386.35593 0.21825 0.19665 0.14245 0.21050 0.22793
386.36463 0.22256 0.19750 0.14241 0.21070 0.23043
386.37331 0.22469 0.20335 0.14102 0.22030 0.23275
386.38200 0.23048 0.20420 0.14313 0.23164 0.24583
386.39067 0.23503 0.21313 0.15272 0.23170 0.24310
386.39938 0.23557 0.21537 0.15140 0.22815 0.24865
386.40804 0.24027 0.21911 0.15752 0.23944 0.25085
386.41675 0.24414 0.21447 0.15414 0.24217 0.25423
386.42542 0.24612 0.22039 0.15709 0.24313 0.26055
386.43413 0.25089 0.22281 0.15976 0.24815 0.26493
386.44279 0.24977 0.22909 0.16110 0.26164 0.27110
386.45150 0.25454 0.22930 0.16611 0.25470 0.27669
386.46017 0.26474 0.23468 0.17402 0.26192 0.27420
386.46888 0.26898 0.23796 0.17570 0.27235 0.28487
386.47754 0.27234 0.23971 0.17286 0.27146 0.28939
386.48625 0.27620 0.24611 0.17928 0.28039 0.29008
386.49492 0.28330 0.24936 0.18585 0.28884 0.29840
386.50362 0.29038 0.25347 0.18752 0.29739 0.31507
386.51229 0.28986 0.26151 0.19291 0.30211 0.31331
386.52099 0.30390 0.25803 0.19654 0.30369 0.31675
386.52967 0.30860 0.26834 0.19216 0.30883 0.32004
386.53833 0.31273 0.27357 0.19977 0.32372 0.32251
386.54704 0.31710 0.27745 0.20742 0.32391 0.34032
386.55571 0.33048 0.28684 0.20973 0.32558 0.34151
386.56441 0.33284 0.29066 0.21658 0.34605 0.35425
386.57308 0.33839 0.29845 0.21269 0.34439 0.36506
386.58176 0.35243 0.30274 0.22492 0.35472 0.36213
386.59046 0.35265 0.30344 0.22803 0.36295 0.37519
386.59913 0.36427 0.30677 0.23242 0.37510 0.38512
386.60780 0.37106 0.31702 0.23322 0.37935 0.39201
386.61651 0.37675 0.32574 0.24416 0.38411 0.40185
386.62517 0.38601 0.32967 0.24840 0.39901 0.40227
386.63387 0.40064 0.33037 0.25061 0.41046 0.41982
386.64255 0.38800 0.34209 0.25351 0.41212 0.42783
386.65122 0.40778 0.34651 0.26341 0.41663 0.43111
386.65992 0.41851 0.35993 0.27074 0.43206 0.44199
386.66859 0.42516 0.36235 0.27827 0.44729 0.45003
386.67727 0.43612 0.37071 0.27985 0.45151 0.47012
386.68593 0.44995 0.37797 0.29152 0.45209 0.47422
386.69464 0.45041 0.39136 0.29353 0.47476 0.48182
386.70331 0.47004 0.40214 0.30914 0.48446 0.50304
386.71199 0.48551 0.40500 0.31137 0.49535 0.51405
386.72068 0.49547 0.41411 0.31857 0.51148 0.52021
386.72936 0.50500 0.41765 0.32993 0.53596 0.53851
386.73803 0.52004 0.43657 0.34063 0.54080 0.55877
386.74670 0.52363 0.43996 0.34716 0.54299 0.56829
386.75540 0.53588 0.45551 0.35493 0.57049 0.58007
386.76407 0.56301 0.46077 0.36603 0.58772 0.59738
386.77275 0.56832 0.48027 0.37167 0.58937 0.61603
386.78141 0.58736 0.48671 0.38022 0.60998 0.62948
386.79012 0.60426 0.49908 0.39255 0.64225 0.64443
386.79879 0.61784 0.51464 0.40445 0.65792 0.68286
386.80746 0.63371 0.52314 0.41935 0.65882 0.68062
386.81613 0.66203 0.53595 0.42775 0.68450 0.70013
386.82484 0.67539 0.55013 0.43732 0.71501 0.72786
386.83351 0.68772 0.56794 0.45449 0.72557 0.74700
386.84218 0.71141 0.57901 0.46396 0.74106 0.76701
386.85085 0.73705 0.60283 0.48549 0.77552 0.78737
386.85953 0.75066 0.61221 0.49925 0.80582 0.82697
386.86819 0.78668 0.62784 0.50900 0.81769 0.84572
386.87689 0.79928 0.64687 0.52865 0.82711 0.86829
386.88557 0.81892 0.66444 0.54620 0.87549 0.89670
386.89424 0.85482 0.68244 0.55818 0.91311 0.93624
386.90291 0.88643 0.70348 0.57728 0.92214 0.95934
386.91158 0.91081 0.72561 0.59619 0.95380 0.98246
386.92026 0.94255 0.75080 0.62525 0.99750 1.01952
386.92895 0.96936 0.77087 0.63359 1.02526 1.06688
386.93763 1.00132 0.79763 0.65895 1.03683 1.09099
386.94630 1.04028 0.82232 0.68061 1.08337 1.12518
386.95497 1.09390 0.83918 0.69870 1.13585 1.18152
386.96364 1.10384 0.87827 0.72894 1.15831 1.21564
386.97232 1.14004 0.90084 0.75120 1.19442 1.23968
386.98099 1.19834 0.93421 0.78576 1.26105 1.30368
386.98966 1.23053 0.95851 0.81363 1.30320 1.36442
386.99833 1.27671 0.99461 0.83755 1.32933 1.40193
387.00700 1.33327 1.02675 0.87549 1.37938 1.43358
387.01567 1.37098 1.06057 0.89726 1.45449 1.50809
387.02437 1.43174 1.09560 0.93566 1.49175 1.58295
387.03305 1.48285 1.13790 0.96582 1.52901 1.61723
387.04172 1.52856 1.18253 1.00091 1.59736 1.68051
387.05039 1.58932 1.22668 1.03729 1.67934 1.76310
387.05906 1.65968 1.26704 1.07508 1.71505 1.83519
387.06774 1.71800 1.32483 1.13298 1.77965 1.88752
387.07640 1.77248 1.36761 1.17054 1.88620 1.96749
387.08508 1.86515 1.41127 1.20858 1.96002 2.06975
387.09375 1.91176 1.47441 1.26229 2.00764 2.14263
387.10242 1.99704 1.53088 1.31216 2.08863 2.21801
387.11109 2.10184 1.58403 1.36767 2.20809 2.32073
387.11977 2.17437 1.65192 1.41420 2.28911 2.43748
387.12844 2.24400 1.71841 1.47577 2.34232 2.52060
387.13710 2.36559 1.77995 1.52610 2.46961 2.61316
387.14578 2.47902 1.86169 1.59553 2.59679 2.74953
387.15445 2.54496 1.92735 1.66323 2.68868 2.88481
387.16312 2.68473 2.01377 1.72266 2.77195 2.99116
387.17179 2.81493 2.09660 1.79264 2.94409 3.11611
387.18047 2.91106 2.18459 1.87278 3.08413 3.30013
387.18910 3.05855 2.27980 1.94972 3.15772 3.42587
387.19778 3.21655 2.37274 2.03782 3.30876 3.55315
387.20645 3.32034 2.46747 2.10478 3.52039 3.74943
387.21512 3.49853 2.57560 2.20579 3.67587 3.95894
387.22379 3.68181 2.69781 2.29473 3.78007 4.10072
387.23247 3.82234 2.82629 2.41190 3.98874 4.27631
387.24114 4.01252 2.94175 2.49767 4.22984 4.54748
387.24980 4.23388 3.06698 2.62869 4.38222 4.76840
387.25848 4.36295 3.21149 2.72935 4.52829 4.92386
387.26715 4.59199 3.35547 2.86899 4.83086 5.17042
387.27579 4.87194 3.50109 2.97060 5.06399 5.47391
387.28446 5.02356 3.67551 3.11574 5.23470 5.76209
387.29314 5.28250 3.85075 3.26360 5.48019 5.96810
387.30180 5.60198 4.03248 3.41765 5.83979 6.31052
387.31048 5.79244 4.21322 3.53855 6.09895 6.63027
387.31915 6.03465 4.41634 3.72852 6.30197 6.89818
387.32783 6.43079 4.63060 3.89890 6.70209 7.21065
387.33646 6.68256 4.84665 4.04294 7.06765 7.65912
387.34514 6.93517 5.06877 4.24383 7.33809 7.98512
387.35381 7.41400 5.35127 4.45529 7.63959 8.33522
387.36248 7.68749 5.57815 4.65188 8.11880 8.70339
387.37115 8.04042 5.85839 4.87610 8.59475 9.25589
387.37979 8.48892 6.12731 5.05875 8.80457 9.58869
387.38846 8.83531 6.41260 5.33956 9.29081 9.99163
387.39713 9.21258 6.72662 5.55980 9.89795 10.55102
387.40581 9.75237 7.04574 5.82959 10.32372 11.08873
387.41447 10.13918 7.39688 6.10089 10.66081 11.49353
387.42312 10.55971 7.79208 6.40853 11.26440 12.02876
387.43179 11.12465 8.09553 6.65065 11.85546 12.60724
387.44046 11.60780 8.52619 7.00683 12.33072 13.22636
387.44913 11.96987 8.92071 7.34084 12.76819 13.64126
387.45778 12.68005 9.30059 7.68206 13.48663 14.21325
387.46644 13.20806 9.76179 8.01651 14.14709 14.96506
387.47512 13.59521 10.24475 8.39338 14.56164 15.55357
387.48376 14.22902 10.66196 8.80179 15.14481 15.98116
387.49243 14.91204 11.17653 9.19838 16.01340 16.69426
387.50110 15.32205 11.69894 9.58897 16.57698 17.43413
387.50977 16.01657 12.20699 10.02966 16.99824 17.97838
387.51842 16.69093 12.69268 10.49910 17.70847 18.48803
387.52708 17.15320 13.26729 10.96525 18.49492 19.27175
387.53576 17.92962 13.81104 11.44348 18.94220 19.95303
387.54440 18.58946 14.38341 11.96915 19.46691 20.39099
387.55307 19.04099 14.95995 12.50195 20.28109 20.99547
387.56174 19.78389 15.51165 13.00828 20.88594 21.72525
387.57039 20.46067 16.11056 13.53330 21.26428 22.23202
387.57905 20.84199 16.72905 14.15197 21.89379 22.66077
387.58773 21.63843 17.34237 14.72928 22.62470 23.34617
387.59637 22.21826 17.82473 15.22915 22.98985 23.89111
387.60504 22.46921 18.49637 15.89237 23.36278 24.28129
387.61368 23.03980 19.03465 16.53360 24.04546 24.73776
387.62235 23.75912 19.65180 17.14131 24.60531 25.35676
387.63102 23.86009 20.19802 17.68278 24.78257 25.71786
387.63966 24.37695 20.77842 18.40323 25.22266 26.00264
387.64834 24.96613 21.29072 18.95320 25.75829 26.37461
387.65697 25.09108 21.85995 19.55718 26.07715 26.83483
387.66565 25.46139 22.41223 20.17096 26.20717 27.05733
387.67432 26.02139 22.92794 20.80000 26.66797 27.28697
387.68296 26.19587 23.35588 21.38690 26.99051 27.69655
387.69163 26.60601 23.90102 21.98556 27.16877 27.92902
387.70028 27.05097 24.33129 22.60313 27.35582 28.06473
387.70895 27.11401 24.62478 23.06372 27.59489 28.27624
387.71759 27.53556 25.05112 23.59750 27.79057 28.48892
387.72626 27.77738 25.48680 24.15100 27.88545 28.57998
387.73491 27.93706 25.87426 24.66404 28.13620 28.71643
387.74357 28.18304 26.07560 25.05512 28.19329 28.84611
387.75221 28.37866 26.36751 25.52301 28.29913 28.92543
387.76089 28.34453 26.67267 25.90495 28.35397 28.93110
387.76952 28.51798 26.88232 26.28409 28.59976 29.06023
387.77820 28.61787 27.19315 26.68876 28.53365 29.16495
387.78684 28.54430 27.34197 27.05589 28.58986 29.11341
387.79551 28.58210 27.47327 27.27183 28.61232 29.12585
387.80415 28.63592 27.66867 27.60790 28.78716 29.27733
387.81283 28.51201 27.75062 27.76641 28.66505 29.22830
387.82146 28.69966 27.98258 28.12709 28.78153 29.22251
387.83014 28.70424 28.09324 28.26088 28.86406 29.25107
387.83878 28.63478 28.09046 28.45205 28.83807 29.22965
387.84745 28.78990 28.20763 28.68314 28.77959 29.30980
387.85609 28.88990 28.25213 28.73056 28.91155 29.30151
387.86476 28.83725 28.26802 28.82271 28.97355 29.33045
387.87340 29.01198 28.39669 28.96521 28.84652 29.32874
387.88204 29.08840 28.48751 29.08535 28.92118 29.29204
387.89072 29.05427 28.47318 29.14526 29.00624 29.25808
387.89935 29.14372 28.45789 29.22282 29.12247 29.39187
387.90803 29.20098 28.52233 29.24502 29.03454 29.36917
387.91667 29.08556 28.50105 29.30135 29.10843 29.34208
387.92531 29.14545 28.49209 29.39032 29.17937 29.35482
387.93398 29.33146 28.74172 29.51445 29.34504 29.56252
387.94263 29.14980 28.63558 29.51647 29.23726 29.55175
387.95129 28.94720 28.41565 29.30836 29.18103 29.35902
387.95994 29.17289 28.65334 29.51367 29.50808 29.62495
387.96858 29.02864 28.53419 29.51084 29.35721 29.62618
387.97725 29.10364 28.64593 29.59752 29.43636 29.65301
387.98589 29.14795 28.64449 29.66819 29.63429 29.68724
387.99453 29.07391 28.67501 29.62488 29.65227 29.87337
388.00320 29.16789 28.72609 29.70524 29.71369 29.93528
388.01184 29.36277 28.74831 29.74097 29.74182 29.91587
388.02049 29.41508 28.75442 29.78641 29.94705 30.09593
388.02915 29.62137 28.85478 29.81418 29.99356 30.25494
388.03780 29.80389 28.85911 29.92586 29.99156 30.22601
388.04644 29.89016 29.00838 30.04812 30.23898 30.40538
388.05508 30.03621 29.04006 30.04460 30.31932 30.46382
388.06375 30.28013 29.11651 30.11844 30.33477 30.67571
388.07240 30.31755 29.17646 30.20469 30.39078 30.66467
388.08103 30.35173 29.21207 30.30918 30.57299 30.80935
388.08971 30.65050 29.31132 30.46237 30.61381 30.97146
388.09835 30.64514 29.43683 30.57259 30.59498 31.11575
388.10699 30.62365 29.53895 30.64445 30.75644 31.14369
388.11563 30.74025 29.61351 30.78822 30.80541 31.25943
388.12430 30.69347 29.77033 30.82406 30.73787 31.36602
388.13294 30.72686 29.88397 31.01081 30.77645 31.43514
388.14158 30.87641 29.94298 31.08311 30.84448 31.59281
388.15023 30.97925 30.14138 31.27638 30.84066 31.71554
388.15886 30.91470 30.22857 31.35699 30.80753 31.73994
388.16754 31.11096 30.35396 31.54034 30.77192 31.79367
388.17618 31.22456 30.46303 31.68615 30.70557 31.83708
388.18482 31.34112 30.56632 31.82198 30.52025 31.89244
388.19346 31.46314 30.69554 32.00107 30.48973 31.88722
388.20210 31.63860 30.83147 32.17090 30.34867 31.92117
388.21077 31.71972 30.90449 32.26183 30.06978 31.91755
388.21942 31.78791 31.08210 32.37306 29.84136 31.77625
388.22805 31.84417 31.10106 32.54529 29.66351 31.74731
388.23669 31.93199 31.22321 32.64842 29.33452 31.66691
388.24534 31.75822 31.29396 32.74011 28.87489 31.49631
388.25397 31.70656 31.34785 32.89726 28.65340 31.33755
388.26262 31.67914 31.43104 32.93087 28.45446 31.24254
388.27129 31.45352 31.48033 33.04232 27.68387 31.01065
388.27993 31.15882 31.57547 33.12429 27.20334 30.68478
388.28857 31.11521 31.56436 33.13432 27.06706 30.41237
388.29722 30.78006 31.50370 33.18582 26.30609 30.20062
388.30585 30.40652 31.52252 33.14321 25.62140 29.78920
388.31450 30.24916 31.47096 33.12449 25.23507 29.35978
388.32314 29.96190 31.36818 32.98693 24.78528 29.09410
388.33178 29.47397 31.26499 32.88791 23.94015 28.63831
388.34042 29.36858 31.12793 32.76882 23.20862 28.06860
388.34907 28.94185 30.97288 32.57078 22.74857 27.52217
388.35770 28.42136 30.77766 32.38861 22.18227 27.18595
388.36637 28.31093 30.60854 32.15554 21.33354 26.63097
388.37502 27.84550 30.41772 31.88434 20.62862 25.91040
388.38365 27.26030 30.10926 31.55271 20.20661 25.47871
388.39230 27.00878 29.85454 31.10664 19.48671 24.96746
388.40094 26.50882 29.50473 30.79326 18.67561 24.30075
388.40958 25.67355 29.11405 30.33614 18.07889 23.48089
388.41822 25.38489 28.76774 29.79284 17.64130 23.06279
388.42686 24.76759 28.31771 29.22662 16.83140 22.44173
388.43550 23.87820 27.90135 28.73292 16.10931 21.69969
388.44415 23.42293 27.37938 28.12002 15.63032 20.96660
388.45278 22.89746 26.86345 27.41725 15.08916 20.48460
388.46143 21.96723 26.45125 26.85312 14.32685 19.91669
388.47007 21.36876 25.76424 26.06196 13.68995 19.00724
388.47871 21.00222 25.30636 25.38686 13.35119 18.53761
388.48735 20.13145 24.81513 24.68264 12.86530 18.08513
388.49599 19.51613 24.21692 23.90879 12.05993 17.28990
388.50463 19.12893 23.66052 23.16939 11.68982 16.57694
388.51324 18.28633 23.04219 22.43220 11.38646 16.14262
388.52189 17.77181 22.40201 21.62154 10.75853 15.59544
388.53052 17.35971 21.81798 20.85394 10.19604 14.91845
388.53917 16.58244 21.21943 20.21219 9.91472 14.34231
388.54780 16.07351 20.56536 19.33973 9.56864 13.94321
388.55645 15.76752 20.02064 18.66353 9.06330 13.43939
388.56509 14.94424 19.36998 17.93628 8.60050 12.75892
388.57373 14.39581 18.70541 17.21140 8.39532 12.27848
388.58237 14.06553 18.11216 16.47727 8.05011 11.89748
388.59102 13.30244 17.53083 15.79261 7.54790 11.38904
388.59965 12.78344 16.94496 15.21243 7.29100 10.86269
388.60826 12.49900 16.34368 14.51639 7.08497 10.51446
388.61691 11.83231 15.72676 13.84003 6.72662 10.11447
388.62554 11.27154 15.18900 13.28415 6.34553 9.62948
388.63419 11.08123 14.68063 12.71947 6.16857 9.18435
388.64283 10.52032 14.05149 12.09967 5.96841 8.85036
388.65147 9.98773 13.59084 11.60220 5.63844 8.57245
388.66008 9.75310 13.09397 11.12034 5.37472 8.14172
388.66872 9.35110 12.50804 10.53731 5.20794 7.76136
388.67736 8.89903 12.13006 10.09138 5.03902 7.55706
388.68601 8.59975 11.60330 9.64600 4.71591 7.19970
388.69464 8.30458 11.16042 9.24011 4.54906 6.83447
388.70329 7.85288 10.70057 8.78789 4.46725 6.61458
388.71190 7.58903 10.23637 8.32664 4.21251 6.35956
388.72054 7.38385 9.94130 8.02362 4.01557 6.12035
388.72918 6.91220 9.48582 7.61599 3.86386 5.79434
388.73782 6.73309 9.12196 7.30044 3.76998 5.63494
388.74643 6.51396 8.76153 6.98870 3.60889 5.43152
388.75507 6.10481 8.40766 6.66601 3.38066 5.14978
388.76371 5.91355 8.06606 6.37698 3.31855 4.94662
388.77235 5.75877 7.73543 6.08566 3.22066 4.79357
388.78097 5.37372 7.41063 5.79453 3.02600 4.58531
388.78960 5.18318 7.10493 5.55710 2.88301 4.35438
388.79825 5.08857 6.83673 5.32591 2.83619 4.18730
388.80689 4.80605 6.55612 5.06689 2.73214 4.06638
388.81550 4.56122 6.29086 4.85963 2.58594 3.87926
388.82414 4.47509 6.01838 4.68668 2.49049 3.68673
388.83279 4.24819 5.76830 4.44525 2.42921 3.56135
388.84139 4.07275 5.56001 4.26711 2.33520 3.47032
388.85004 3.96197 5.30777 4.07387 2.18496 3.29075
388.85867 3.79431 5.14318 3.91841 2.14912 3.15388
388.86728 3.58738 4.91547 3.73016 2.09145 3.06193
388.87593 3.53804 4.71893 3.57475 1.99757 2.96138
388.88456 3.37783 4.54585 3.44626 1.88573 2.81904
388.89318 3.21601 4.36910 3.31451 1.87022 2.71278
388.90182 3.17045 4.19073 3.17017 1.81324 2.65690
388.91046 3.02585 4.02640 3.03023 1.70368 2.54162
388.91907 2.86231 3.87795 2.92995 1.64946 2.43619
388.92771 2.80175 3.70465 2.80149 1.61577 2.34796
388.93635 2.70944 3.58660 2.68831 1.55808 2.27677
388.94497 2.55304 3.43465 2.60239 1.46617 2.18291
388.95360 2.49762 3.31441 2.49172 1.41322 2.08686
388.96222 2.43637 3.17711 2.39708 1.40898 2.03540
388.97086 2.29515 3.06913 2.29987 1.34472 1.97719
388.97949 2.20649 2.95677 2.21046 1.27918 1.88184
388.98811 2.16713 2.84338 2.12612 1.24651 1.80656
388.99674 2.07514 2.73784 2.04857 1.22691 1.76820
389.00536 1.99053 2.62866 1.97608 1.16894 1.70552
389.01400 1.95937 2.54801 1.90262 1.11155 1.63405
389.02261 1.87032 2.45177 1.83121 1.09723 1.56986
389.03125 1.80398 2.36752 1.76481 1.07115 1.53492
389.03990 1.75984 2.26928 1.69609 1.01474 1.48299
389.04850 1.69675 2.19356 1.64577 0.98055 1.42640
389.05715 1.61305 2.11146 1.59196 0.96557 1.38062
389.06575 1.59101 2.03939 1.52115 0.92136 1.35402
389.07440 1.52056 1.96522 1.46600 0.88608 1.29810
389.08301 1.44823 1.89966 1.41720 0.86848 1.24122
389.09165 1.43976 1.83358 1.37531 0.84264 1.21597
389.10026 1.38644 1.76918 1.33048 0.82322 1.18995
389.10890 1.31550 1.70800 1.27195 0.77777 1.14229
389.11751 1.28943 1.66816 1.23258 0.76622 1.10396
389.12615 1.25824 1.58945 1.20052 0.75363 1.07882
389.13476 1.19052 1.54945 1.14341 0.71731 1.04161
389.14340 1.16182 1.49006 1.12888 0.69466 1.00442
389.15202 1.14252 1.44374 1.07660 0.68111 0.97099
389.16065 1.08946 1.40017 1.04249 0.66934 0.95325
389.16927 1.05589 1.34201 0.99963 0.62918 0.92617
389.17788 1.04260 1.31610 0.96755 0.61960 0.87958
389.18652 0.99519 1.26584 0.94099 0.61029 0.85652
389.19513 0.96230 1.22016 0.90374 0.59308 0.83985
389.20377 0.94580 1.19228 0.88707 0.56709 0.82021
389.21238 0.89754 1.14817 0.85994 0.55609 0.78263
389.22100 0.87721 1.12214 0.83084 0.54712 0.76242
389.22963 0.86203 1.07346 0.79869 0.52307 0.74419
389.23824 0.81703 1.04596 0.76841 0.50257 0.71155
389.24688 0.80169 1.02031 0.75757 0.49303 0.69420
389.25549 0.79017 0.97156 0.72904 0.48660 0.67236
389.26411 0.75997 0.94466 0.70908 0.46946 0.65845
389.27274 0.71923 0.92057 0.68759 0.44469 0.62922
389.28136 0.71365 0.89397 0.66181 0.45135 0.61546
389.28997 0.70479 0.85900 0.65015 0.44254 0.60470
389.29861 0.66391 0.84065 0.62969 0.42286 0.58197
389.30722 0.65412 0.81019 0.60967 0.40555 0.56689
389.31583 0.63995 0.78141 0.58968 0.40266 0.54492
389.32447 0.61276 0.76574 0.56916 0.39116 0.53296
389.33309 0.59906 0.74038 0.55790 0.37733 0.52815
389.34169 0.58340 0.72166 0.54330 0.36149 0.49778
389.35033 0.56286 0.69365 0.52969 0.35888 0.48852
389.35894 0.55359 0.68466 0.50866 0.35483 0.48621
389.36755 0.54565 0.65569 0.49589 0.33731 0.47293
389.37620 0.52053 0.63742 0.48336 0.33184 0.45075
389.38480 0.50126 0.61834 0.47302 0.32617 0.44494
389.39342 0.49767 0.60279 0.45431 0.31494 0.43361
389.40202 0.47654 0.58476 0.43817 0.30601 0.41998
389.41067 0.46706 0.56862 0.43410 0.30168 0.40704
389.41928 0.45930 0.55821 0.42183 0.29852 0.40408
389.42789 0.43457 0.53560 0.39875 0.28418 0.39101
389.43650 0.42137 0.52174 0.40089 0.27566 0.37840
389.44515 0.41890 0.50096 0.38811 0.26853 0.35985
389.45375 0.40585 0.48865 0.36904 0.26644 0.36187
389.46237 0.38908 0.47842 0.36799 0.25430 0.34165
389.47097 0.37840 0.46929 0.35732 0.24735 0.33714
389.47961 0.37309 0.45262 0.34021 0.24671 0.32746
389.48823 0.35304 0.43662 0.33255 0.24582 0.32694
389.49683 0.35996 0.43618 0.33448 0.23501 0.31355
389.50545 0.34526 0.42094 0.31697 0.22700 0.30156
389.51405 0.33351 0.40363 0.31365 0.22891 0.29639
389.52267 0.32700 0.39183 0.30595 0.21504 0.29478
389.53131 0.32408 0.38499 0.29580 0.21246 0.28252
389.53992 0.30842 0.37005 0.28802 0.20875 0.27393
389.54853 0.30281 0.35814 0.28252 0.20703 0.26492
389.55714 0.29828 0.35109 0.27386 0.19738 0.26203
389.56575 0.28181 0.34446 0.27254 0.19146 0.25741
389.57437 0.27647 0.33558 0.26629 0.18847 0.24766
389.58297 0.27510 0.32665 0.25661 0.19151 0.24546
389.59162 0.26577 0.31452 0.24767 0.18284 0.24030
389.60022 0.25268 0.30891 0.25241 0.16993 0.22644
389.60883 0.25047 0.30094 0.23697 0.17096 0.22123
389.61745 0.25011 0.29297 0.22882 0.17214 0.22159
389.62605 0.23247 0.28669 0.23210 0.16317 0.21669
389.63467 0.23592 0.27429 0.22797 0.16178 0.21208
389.64327 0.23146 0.27593 0.21830 0.16501 0.20784
389.65189 0.22334 0.25548 0.21731 0.15450 0.20120
389.66050 0.22108 0.26373 0.21128 0.15006 0.19461
389.66911 0.21874 0.25486 0.20924 0.14784 0.18872
389.67772 0.20582 0.24531 0.20277 0.14992 0.19099
389.68636 0.20452 0.24229 0.19294 0.14221 0.18307
389.69497 0.20396 0.23687 0.19460 0.13579 0.17374
389.70359 0.18929 0.22096 0.18458 0.13707 0.17368
389.71219 0.19371 0.22389 0.18610 0.13681 0.17207
389.72080 0.18538 0.21663 0.18222 0.13002 0.17236
389.72941 0.18392 0.21326 0.17858 0.12617 0.16298
389.73802 0.17627 0.20983 0.17554 0.12812 0.16063
389.74664 0.17358 0.19899 0.16730 0.12045 0.15469
389.75524 0.16950 0.19367 0.16824 0.11874 0.15506
389.76386 0.17050 0.18879 0.15996 0.11783 0.15124
389.77246 0.15943 0.18969 0.16087 0.11318 0.14844
389.78108 0.15807 0.18130 0.15568 0.11148 0.14767
389.78969 0.15472 0.17947 0.15473 0.10752 0.14737
389.79830 0.15649 0.17677 0.15690 0.10492 0.13851
389.80688 0.15303 0.17352 0.15221 0.10743 0.13671
389.81549 0.14664 0.16902 0.14504 0.10216 0.13195
389.82410 0.14948 0.16471 0.14600 0.10251 0.13018
389.83272 0.14377 0.16376 0.14057 0.10548 0.12800
389.84132 0.13881 0.15939 0.13841 0.10084 0.12560
389.84993 0.13906 0.15614 0.13920 0.09610 0.12469
389.85854 0.13287 0.14976 0.13619 0.09249 0.12147
389.86715 0.12918 0.15486 0.12800 0.09483 0.11525
389.87576 0.12552 0.14438 0.12503 0.08883 0.11711
389.88437 0.12644 0.14658 0.12561 0.08762 0.11642
389.89299 0.12346 0.14136 0.12569 0.08882 0.11543
389.90159 0.12107 0.13362 0.12041 0.08603 0.10755
389.91018 0.11742 0.13576 0.11920 0.08592 0.10960
389.91878 0.11667 0.13408 0.11815 0.07923 0.10802
389.92740 0.11291 0.13141 0.11788 0.08078 0.10390
389.93601 0.11751 0.13239 0.11449 0.08304 0.10206
389.94462 0.11217 0.12418 0.11447 0.08035 0.09960
389.95323 0.10782 0.12662 0.11158 0.07711 0.10381
389.96184 0.10609 0.11824 0.11015 0.07476 0.09832
389.97042 0.10667 0.11802 0.10599 0.08026 0.09528
389.97903 0.09685 0.11523 0.10656 0.07400 0.09579
389.98764 0.10524 0.11348 0.10539 0.07229 0.09321
389.99625 0.09819 0.11244 0.10009 0.07148 0.09029
390.00486 0.09742 0.11314 0.09862 0.07091 0.08789
390.01344 0.09859 0.11345 0.10274 0.07359 0.09091
390.02205 0.09700 0.10748 0.10181 0.06948 0.08706
390.03066 0.09143 0.10665 0.09737 0.06857 0.08678
390.03928 0.09098 0.10327 0.09877 0.07171 0.08588
390.04788 0.08982 0.10534 0.09271 0.06802 0.08497
390.05647 0.08953 0.09922 0.08859 0.06335 0.08123
390.06507 0.09056 0.09913 0.09323 0.07097 0.08323
390.07369 0.08749 0.09737 0.08915 0.05706 0.08069
390.08230 0.08763 0.10288 0.08925 0.06328 0.08444
390.09088 0.08505 0.09769 0.08584 0.06578 0.07714
390.09949 0.08330 0.09455 0.08330 0.06025 0.07905
390.10809 0.08178 0.09362 0.08341 0.06041 0.07581
390.11668 0.08182 0.08817 0.08070 0.05849 0.07780
390.12528 0.08262 0.08538 0.08117 0.05578 0.07190
390.13390 0.07930 0.08655 0.07964 0.05596 0.07058
390.14251 0.07558 0.08568 0.08074 0.05977 0.07105
390.15109 0.08165 0.08940 0.08298 0.05511 0.07358
390.15970 0.07314 0.08409 0.07455 0.05414 0.07059
390.16831 0.07931 0.08551 0.07960 0.05559 0.07003
390.17689 0.07905 0.08272 0.07792 0.05435 0.07259
390.18551 0.07369 0.08074 0.07630 0.05547 0.06839
390.19411 0.07360 0.08026 0.07245 0.05382 0.06599
390.20270 0.07257 0.08274 0.07290 0.05850 0.06586
390.21130 0.07168 0.07767 0.07228 0.05558 0.06801
390.21988 0.06950 0.07363 0.06999 0.05023 0.06723
390.22849 0.06695 0.07764 0.07232 0.05283 0.06765
390.23710 0.06675 0.07604 0.06934 0.04896 0.06311
390.24569 0.06486 0.07201 0.06605 0.04984 0.06401
390.25429 0.06382 0.07284 0.07026 0.05013 0.06122
390.26291 0.06617 0.07575 0.06522 0.04843 0.06143
390.27148 0.06767 0.07259 0.06835 0.04803 0.06548
390.28010 0.06328 0.07102 0.06181 0.04401 0.05881
390.28867 0.06178 0.07094 0.06267 0.04950 0.06036
390.29729 0.06536 0.07078 0.06265 0.04575 0.05995
390.30587 0.06513 0.06779 0.06080 0.04360 0.06119
390.31448 0.06225 0.06690 0.06130 0.04346 0.05492
390.32309 0.06126 0.06737 0.05838 0.04426 0.05514
390.33167 0.05973 0.06418 0.05959 0.04488 0.05938
390.34028 0.05818 0.06461 0.06032 0.04477 0.05678
390.34885 0.05666 0.06737 0.05491 0.04035 0.05100
390.35747 0.05714 0.06401 0.05611 0.04334 0.05090
390.36605 0.05586 0.05498 0.05595 0.04042 0.05502
390.37466 0.05717 0.06407 0.05508 0.04096 0.05274
390.38324 0.05581 0.06477 0.05297 0.04125 0.05613
390.39185 0.05440 0.06071 0.05231 0.04383 0.05264
390.40043 0.05787 0.05760 0.05521 0.04262 0.05564
390.40904 0.05238 0.05823 0.04860 0.03845 0.05011
390.41762 0.05658 0.05913 0.05144 0.04288 0.04840
390.42624 0.05659 0.06163 0.05371 0.04327 0.04816
390.43481 0.05344 0.06071 0.04906 0.04643 0.05115
390.44343 0.05165 0.05251 0.04398 0.03901 0.04658
390.45200 0.04701 0.05433 0.04863 0.03865 0.04871
390.46062 0.05344 0.05831 0.04549 0.03651 0.04521
390.46919 0.04723 0.05437 0.05006 0.03739 0.04554
390.47777 0.05094 0.05265 0.04468 0.03540 0.04522
390.48639 0.04658 0.05652 0.04593 0.03496 0.04990
390.49496 0.04833 0.05117 0.04394 0.03782 0.04594
390.50358 0.04479 0.05363 0.04449 0.03551 0.04421
390.51215 0.04969 0.04529 0.04318 0.03450 0.04374
390.52077 0.04456 0.05117 0.04311 0.03725 0.04083
390.52934 0.04486 0.05092 0.04513 0.03819 0.04629
390.53793 0.04840 0.05010 0.04607 0.03248 0.04437
390.54654 0.04316 0.05024 0.04394 0.03273 0.03998
390.55512 0.04271 0.04482 0.04271 0.03068 0.03704
390.56370 0.04236 0.04831 0.04069 0.03349 0.03819
390.57231 0.04490 0.04693 0.04232 0.03713 0.04431
390.58089 0.04133 0.04424 0.04047 0.03323 0.04013
390.58946 0.04192 0.04842 0.04331 0.03247 0.04164
390.59808 0.04318 0.05113 0.04289 0.03429 0.04039
390.60665 0.04330 0.04262 0.03657 0.03214 0.03767
390.61524 0.04395 0.04603 0.04112 0.03254 0.04050
390.62385 0.04519 0.04755 0.03902 0.03435 0.03818
390.63243 0.04189 0.04681 0.04047 0.03271 0.03684
390.64101 0.03791 0.04535 0.04072 0.03238 0.03902
390.64962 0.04153 0.04417 0.03669 0.03084 0.03835
390.65820 0.04297 0.04524 0.04149 0.03401 0.03586
390.66678 0.03979 0.04715 0.03835 0.03642 0.04172
390.67539 0.03868 0.04557 0.04010 0.03330 0.03749
390.68397 0.03865 0.04496 0.03556 0.03108 0.03607
390.69255 0.03529 0.04390 0.03306 0.02969 0.03465
390.70114 0.03427 0.03812 0.03906 0.02928 0.03735
390.70974 0.03348 0.04371 0.03463 0.03048 0.03480
390.71832 0.03368 0.04140 0.03569 0.02814 0.03392
390.72690 0.03565 0.04005 0.03152 0.02871 0.03450
390.73548 0.03791 0.03923 0.03404 0.03152 0.03677
390.74409 0.03871 0.04197 0.03844 0.03002 0.03192
390.75267 0.03321 0.03925 0.03324 0.02739 0.03322
390.76125 0.03579 0.03825 0.03112 0.02692 0.03077
390.76983 0.03402 0.03873 0.03242 0.02883 0.03098
390.77842 0.03145 0.04103 0.03506 0.03041 0.03506
390.78702 0.03646 0.03553 0.03342 0.02586 0.03168
390.79561 0.03392 0.03803 0.03452 0.02896 0.03420
390.80418 0.02950 0.03696 0.03068 0.02594 0.03201
390.81277 0.03460 0.03624 0.03301 0.02715 0.03292
390.82134 0.03051 0.03522 0.03171 0.03007 0.03217
390.82996 0.03891 0.03826 0.03531 0.03450 0.03300
390.83853 0.03117 0.03449 0.03152 0.02512 0.02756
390.84711 0.03446 0.03716 0.03287 0.02950 0.03165
390.85570 0.03140 0.03602 0.03142 0.02812 0.02829
390.86427 0.03282 0.03499 0.02785 0.02562 0.02863
390.87286 0.02893 0.03117 0.02703 0.02196 0.02863
390.88143 0.03250 0.03217 0.02893 0.02333 0.02936
390.89002 0.03444 0.03464 0.03422 0.03086 0.02914
390.89862 0.03298 0.03518 0.02776 0.02237 0.03187
390.90721 0.02960 0.03436 0.02944 0.02518 0.03047
390.91578 0.03017 0.03291 0.02911 0.02265 0.03210
390.92437 0.03069 0.03262 0.02571 0.02654 0.03210
390.93294 0.02750 0.03414 0.03145 0.02222 0.03140
390.94153 0.02943 0.03334 0.03009 0.02554 0.02968
390.95011 0.02871 0.03455 0.02853 0.02376 0.03011
390.95869 0.02850 0.03239 0.02744 0.02490 0.02736
390.96727 0.02685 0.03483 0.03076 0.02462 0.02873
390.97584 0.02781 0.03110 0.02674 0.02313 0.02806
390.98443 0.02749 0.02750 0.02257 0.02279 0.03165
390.99300 0.03088 0.03333 0.02566 0.02255 0.03007
391.00159 0.02898 0.03344 0.02604 0.02290 0.02619
391.01016 0.02693 0.02916 0.02231 0.02142 0.02581
391.01875 0.02801 0.03165 0.02504 0.02415 0.02776
391.02732 0.02414 0.03252 0.02424 0.02221 0.02553
391.03591 0.02456 0.03013 0.02744 0.02180 0.02764
391.04449 0.02635 0.02887 0.02592 0.01708 0.02183
391.05307 0.02557 0.02920 0.02622 0.02224 0.02467
391.06165 0.02267 0.02857 0.02555 0.02161 0.02462
391.07023 0.02891 0.02973 0.02953 0.02216 0.02464
391.07881 0.02514 0.02793 0.02634 0.01896 0.02513
391.08738 0.02583 0.02953 0.02568 0.02591 0.03012
391.09597 0.02798 0.02825 0.02363 0.01935 0.02603
391.10454 0.02570 0.03128 0.02156 0.01840 0.02513
391.11313 0.02708 0.02683 0.02550 0.02095 0.02201
391.12170 0.02716 0.02940 0.02557 0.02131 0.02404
391.13029 0.02846 0.02985 0.02883 0.02512 0.02647
391.13887 0.02485 0.03074 0.02217 0.02181 0.02653
391.14745 0.02630 0.02852 0.02304 0.01935 0.02572
391.15603 0.02633 0.02995 0.02391 0.01993 0.02547
391.16461 0.02350 0.02797 0.02004 0.01771 0.02462
391.17316 0.02743 0.02656 0.02526 0.02214 0.02208
391.18174 0.02490 0.02715 0.01862 0.02274 0.02210
391.19032 0.02446 0.02839 0.02237 0.01642 0.02559
391.19890 0.02756 0.02894 0.02096 0.02003 0.02277
391.20748 0.02600 0.02938 0.02497 0.02098 0.02797
391.21605 0.02633 0.02607 0.02504 0.01852 0.02269
391.22464 0.02560 0.02645 0.02375 0.02172 0.02669
391.23318 0.02570 0.02851 0.02215 0.01985 0.02178
391.24177 0.02472 0.02698 0.01873 0.01693 0.02193
391.25035 0.02291 0.02431 0.02329 0.02238 0.02037
391.25893 0.02581 0.02749 0.02198 0.01910 0.02271
391.26751 0.02136 0.02558 0.01813 0.02028 0.02501
391.27609 0.02712 0.02906 0.02412 0.01846 0.02375
391.28464 0.02165 0.02421 0.01928 0.01498 0.02136
391.29322 0.02493 0.02634 0.02060 0.01661 0.02211
391.30180 0.01921 0.02840 0.02044 0.01756 0.02115
391.31038 0.02573 0.02881 0.02664 0.01990 0.02402
391.31896 0.02363 0.02725 0.01873 0.01529 0.02111
391.32751 0.01864 0.01984 0.01989 0.01559 0.01863
391.33609 0.02195 0.02178 0.02154 0.01976 0.02166
391.34466 0.02157 0.02580 0.02089 0.01799 0.02211
391.35325 0.02381 0.02548 0.02337 0.01720 0.02020
391.36179 0.02058 0.02973 0.01932 0.01727 0.02279
391.37038 0.02256 0.02289 0.01881 0.01902 0.02142
391.37896 0.02338 0.02614 0.01798 0.02065 0.02004
391.38754 0.02138 0.02229 0.01986 0.01922 0.02086
391.39609 0.02440 0.02551 0.01871 0.01610 0.02079
391.40467 0.01969 0.02445 0.01984 0.01807 0.02023
391.41325 0.02418 0.02336 0.01879 0.01619 0.01834
391.42180 0.01755 0.01899 0.01741 0.01287 0.01586
391.43038 0.02229 0.02263 0.01774 0.01457 0.01729
391.43896 0.02263 0.02216 0.01644 0.01356 0.01905
391.44751 0.02014 0.02597 0.02082 0.02073 0.02429
391.45609 0.02084 0.02091 0.02210 0.01587 0.02028
391.46467 0.02354 0.02111 0.01980 0.01445 0.01882
391.47321 0.02002 0.02203 0.01821 0.01255 0.01862
391.48180 0.02372 0.02515 0.01857 0.01819 0.02287
391.49037 0.02144 0.02040 0.01822 0.01869 0.02061
391.49893 0.01968 0.02251 0.01648 0.01635 0.01993
391.50750 0.02277 0.02251 0.01512 0.01525 0.01884
391.51609 0.01927 0.02017 0.01746 0.01510 0.02232
391.52463 0.02039 0.02320 0.01941 0.01903 0.01953
391.53322 0.01847 0.01802 0.01254 0.01377 0.01734
391.54176 0.02096 0.02293 0.01886 0.01792 0.02288
391.55035 0.01992 0.02301 0.01786 0.02024 0.01965
391.55893 0.01974 0.02475 0.01523 0.01923 0.01645
391.56748 0.01921 0.01928 0.02100 0.01288 0.01673
391.57606 0.01576 0.01917 0.01429 0.01386 0.01383
391.58460 0.01782 0.01683 0.01771 0.01372 0.01478
391.59319 0.01534 0.01656 0.01359 0.01316 0.01368
391.60173 0.01947 0.02035 0.01467 0.01343 0.01809
391.61032 0.02088 0.02012 0.01606 0.01458 0.01591
391.61886 0.01624 0.01636 0.01254 0.01349 0.01623
391.62745 0.01569 0.01911 0.01423 0.01050 0.01487
391.63602 0.01806 0.01951 0.01572 0.01391 0.01415
391.64458 0.01760 0.02240 0.01914 0.01403 0.01786
391.65315 0.01556 0.01679 0.01574 0.01170 0.01417
391.66171 0.01669 0.01734 0.01247 0.01174 0.01283
391.67028 0.01787 0.01851 0.01415 0.01178 0.01563
391.67884 0.01654 0.01940 0.01642 0.01239 0.01458
391.68741 0.01567 0.02078 0.01362 0.01346 0.01455
391.69597 0.01656 0.01584 0.00981 0.00683 0.01294
391.70454 0.01689 0.01810 0.01702 0.01606 0.01465
391.71309 0.01752 0.01734 0.01433 0.01586 0.01724
391.72164 0.01522 0.01424 0.01537 0.01217 0.01381
391.73022 0.01526 0.01678 0.01265 0.01334 0.01331
391.73877 0.01694 0.01817 0.01322 0.01195 0.01556
391.74735 0.01482 0.01577 0.01359 0.01261 0.01173
391.75590 0.01324 0.01367 0.01036 0.01158 0.01070
391.76448 0.01235 0.01697 0.01144 0.01181 0.01825
391.77304 0.01685 0.01504 0.01537 0.01103 0.01602
391.78158 0.01969 0.01647 0.01013 0.01247 0.01271
391.79017 0.01183 0.01612 0.00953 0.01242 0.01266
391.79871 0.01525 0.01343 0.00847 0.01305 0.00936
391.80730 0.01773 0.01754 0.01511 0.01609 0.01575
391.81584 0.01486 0.01941 0.01836 0.01461 0.01791
391.82440 0.01465 0.01700 0.01204 0.00797 0.00850
391.83297 0.01468 0.01730 0.01401 0.01077 0.01523
391.84152 0.01326 0.01534 0.01454 0.01161 0.01464
391.85010 0.01474 0.01707 0.01242 0.01171 0.01417
391.85865 0.01312 0.01383 0.01276 0.01428 0.01228
391.86720 0.01668 0.01706 0.01490 0.01059 0.01527
391.87578 0.01164 0.01426 0.01156 0.01084 0.01385
391.88433 0.01455 0.01413 0.01474 0.01265 0.01344
391.89288 0.01517 0.01585 0.01203 0.00963 0.01322
391.90146 0.01236 0.01252 0.01392 0.00961 0.01375
391.91001 0.01569 0.01693 0.00979 0.01155 0.01347
391.91856 0.01395 0.01272 0.01331 0.01006 0.01005
391.92711 0.00957 0.01112 0.01198 0.00820 0.01040
391.93569 0.01468 0.01481 0.01126 0.01359 0.01525
391.94424 0.01067 0.01549 0.01334 0.01236 0.01205
391.95279 0.01517 0.01282 0.01396 0.00935 0.01044
391.96137 0.01317 0.01085 0.01060 0.00709 0.01095
391.96991 0.01418 0.01267 0.01188 0.01004 0.01111
391.97847 0.01453 0.01437 0.01192 0.01259 0.01228
391.98701 0.01363 0.01322 0.01050 0.01005 0.01168
391.99560 0.01042 0.01252 0.00842 0.00683 0.00930
392.00414 0.01101 0.01393 0.01065 0.01104 0.00961
392.01270 0.01156 0.01061 0.01147 0.00880 0.01099
392.02124 0.01431 0.01363 0.00981 0.01213 0.01153
392.02980 0.01127 0.01255 0.01120 0.00991 0.01740
392.03837 0.01082 0.01016 0.00880 0.00779 0.01109
392.04693 0.01039 0.01441 0.01197 0.01015 0.01177
392.05547 0.01373 0.01195 0.01170 0.00931 0.01123
392.06403 0.01357 0.01178 0.01400 0.00943 0.01023
392.07257 0.01314 0.01218 0.01029 0.01234 0.00926
392.08115 0.01068 0.01443 0.00922 0.00932 0.01152
392.08970 0.01088 0.00995 0.00997 0.00671 0.01171
392.09825 0.01014 0.01363 0.01089 0.00850 0.00875
392.10680 0.01129 0.01119 0.01232 0.01189 0.01269
392.11535 0.01394 0.01107 0.01248 0.00374 0.01175
392.12390 0.01375 0.01334 0.01061 0.00988 0.01096
392.13245 0.01001 0.01185 0.01188 0.00808 0.00806
392.14103 0.01226 0.01076 0.00968 0.01005 0.01058
392.14958 0.01040 0.01332 0.01227 0.01043 0.00929
392.15813 0.01217 0.00821 0.00880 0.00860 0.00913
392.16668 0.01276 0.00880 0.00909 0.01141 0.00583
392.17523 0.00787 0.00917 0.00918 0.01038 0.00870
392.18378 0.01037 0.00944 0.01167 0.00846 0.00900
392.19233 0.00666 0.00769 0.00882 0.00752 0.00694
392.20088 0.00876 0.01142 0.00980 0.00682 0.00709
392.20942 0.01172 0.01105 0.01109 0.01063 0.01088
392.21798 0.01142 0.01186 0.01244 0.01034 0.01142
392.22655 0.00905 0.00923 0.00981 0.00656 0.00654
392.23511 0.00625 0.01167 0.00620 0.00570 0.00985
392.24365 0.00712 0.00955 0.00736 0.00714 0.00601
392.25221 0.01250 0.01376 0.00827 0.00724 0.01221
392.26075 0.01128 0.01090 0.00983 0.00908 0.00821
392.26931 0.00963 0.01147 0.01012 0.01189 0.00963
392.27785 0.01072 0.01199 0.01204 0.00657 0.00822
392.28641 0.00711 0.00981 0.00816 0.00713 0.00628
392.29495 0.01325 0.01007 0.00872 0.00963 0.00766
392.30351 0.01361 0.01238 0.01185 0.01253 0.00971
392.31205 0.01190 0.01290 0.01044 0.00694 0.00664
392.32061 0.00498 0.01481 0.00770 0.00749 0.00941
392.32915 0.00924 0.00831 0.00916 0.00759 0.00565
392.33770 0.01199 0.01543 0.00996 0.01090 0.01281
392.34625 0.00889 0.01127 0.00911 0.00835 0.00806
392.35480 0.00831 0.01316 0.00605 0.00889 0.01024
392.36335 0.01133 0.00820 0.00823 0.00858 0.00774
392.37187 0.00927 0.01055 0.00838 0.01013 0.01038
392.38042 0.00595 0.01109 0.01276 0.00762 0.00871
392.38897 0.01010 0.01026 0.00645 0.00984 0.01092
392.39752 0.00918 0.00469 0.00276 0.00167 0.00306
392.40607 0.01404 0.00923 0.00787 0.00906 0.00848
392.41462 0.00763 0.01030 0.00537 0.00542 0.00819
392.42317 0.00512 0.00837 0.00921 0.00403 0.00291
392.43172 0.01124 0.01002 0.00895 0.00292 0.00846
392.44027 0.01056 0.00797 0.00909 0.00501 0.00887
392.44882 0.00930 0.01218 0.00678 0.01095 0.01147
392.45737 0.00866 0.00994 0.00942 0.00758 0.00921
392.46588 0.00941 0.00689 0.00583 0.00972 0.00887
392.47443 0.00922 0.01104 0.00889 0.00566 0.00784
392.48298 0.00549 0.00462 0.00492 0.00441 0.00495
392.49153 0.00577 0.00979 0.00791 0.00551 0.00715
392.50008 0.00687 0.01060 0.00764 0.00772 0.01016
392.50863 0.00755 0.01129 0.00669 0.00702 0.01030
392.51715 0.00736 0.01000 0.00839 0.00547 0.00819
392.52570 0.01010 0.00920 0.00840 0.00794 0.01037
392.53425 0.00752 0.01124 0.00639 0.00782 0.00780
392.54280 0.00672 0.00747 0.00613 0.00812 0.00754
392.55135 0.01043 0.00733 0.00845 0.00055 0.00576
392.55987 0.01163 0.01043 0.00964 0.01222 0.01300
392.56842 0.01058 0.00939 0.00641 0.00814 0.00756
392.57697 0.00989 0.01170 0.00627 0.00964 0.00989
392.58552 0.00437 0.00892 0.00732 0.00766 0.00628
392.59406 0.00819 0.00999 0.00894 0.00820 0.00573
392.60259 0.00962 0.00898 0.00737 0.00661 0.01072
392.61113 0.00850 0.00786 0.01034 0.00934 0.01069
392.61969 0.00771 0.00982 0.00765 0.00552 0.00578
392.62823 0.00868 0.00832 0.00834 0.00897 0.00620
392.63676 0.00480 0.00638 0.00422 0.00839 0.00397
392.64530 0.00564 0.00395 0.00723 0.00676 0.00812
392.65386 0.00947 0.00965 0.00694 0.00812 0.00891
392.66237 0.00648 0.00641 0.00424 0.00318 0.00234
392.67093 0.00852 0.00952 0.00518 0.00633 0.00961
392.67947 0.00719 0.00658 0.00935 0.00472 0.00580
392.68802 0.00619 0.00885 0.00724 0.00455 0.00783
392.69654 0.00784 0.01211 0.00751 0.00703 0.00509
392.70508 0.00698 0.00665 0.00992 0.00563 0.00917
392.71364 0.01081 0.01043 0.00775 0.00699 0.01053
392.72215 0.00726 0.01098 0.00693 0.00535 0.01025
392.73071 0.00832 0.00985 0.00798 0.00588 0.00803
392.73925 0.00618 0.00830 0.00396 0.00455 0.00810
392.74778 0.00423 0.00823 0.00853 0.00424 0.00831
392.75632 0.00962 0.00924 0.00600 0.01130 0.00686
392.76485 0.01268 0.01173 0.00820 0.00939 0.01019
392.77339 0.00758 0.00914 0.00780 0.00428 0.00592
392.78195 0.01140 0.01020 0.00696 0.00703 0.00921
392.79046 0.00758 0.00724 0.01054 0.00677 0.00786
392.79902 0.00882 0.01118 0.00547 0.00746 0.00468
392.80753 0.00854 0.00683 0.00876 0.00747 0.00661
392.81609 0.00872 0.00809 0.00728 0.00569 0.00816
392.82463 0.00697 0.01150 0.00637 0.00480 0.00424
392.83314 0.00854 0.00763 0.00847 0.00469 0.00882
392.84170 0.00758 0.00751 0.00698 0.00622 0.00731
392.85021 0.00494 0.00462 0.00545 0.00743 0.00823
392.85877 0.00590 0.00747 0.00586 0.00785 0.00618
392.86728 0.00647 0.00695 0.00479 0.00594 0.00317
392.87584 0.00696 0.00852 0.00611 0.00617 0.00478
392.88435 0.00671 0.00636 0.00693 0.00919 0.00916
392.89291 0.00639 0.00956 0.00391 0.00831 0.00720
392.90145 0.00584 0.00685 0.00390 0.00530 0.00881
392.90998 0.00736 0.00459 0.00757 0.00464 0.00707
392.91852 0.00586 0.00580 0.00690 0.00423 0.00694
392.92705 0.00909 0.01168 0.00795 0.00749 0.00285
392.93559 0.00860 0.00825 0.00909 0.00780 0.00942
392.94412 0.00750 0.01092 0.00609 0.00969 0.00885
392.95263 0.00912 0.00633 0.00284 0.00559 0.00313
392.96118 0.00490 0.00215 0.00567 0.00410 0.00082
392.96970 0.00750 0.00797 0.00392 0.00670 0.00695
392.97824 0.00666 0.00793 0.00715 0.00449 0.00394
392.98677 0.00657 0.00624 0.00381 0.00604 0.00548
392.99531 0.00505 0.00825 0.00366 0.00151 0.00807
393.00384 0.01021 0.00850 0.00933 0.00943 0.00885
393.01238 0.00796 0.01086 0.00600 0.00606 0.00631
393.02091 0.00856 0.00552 0.00581 0.00614 0.00666
393.02942 0.00870 0.00915 0.00351 0.00763 0.00490
393.03798 0.00638 0.00846 0.00552 0.00803 0.00366
393.04649 0.00611 0.00954 0.00741 0.00531 0.00584
393.05505 0.00489 0.00780 0.00431 0.00572 0.00408
393.06356 0.00734 0.00646 0.00351 0.00382 0.00734
393.07208 0.00694 0.00633 0.00635 0.00368 0.00313
393.08063 0.00526 0.00680 0.00870 0.00770 0.00848
393.08914 0.00745 0.00899 0.00498 0.00530 0.00528
393.09770 0.00417 0.01267 0.00789 0.00581 0.00821
393.10621 0.00754 0.01040 0.00455 0.00512 0.00700
393.11474 0.00661 0.00921 0.00523 0.00608 0.00661
393.12328 0.00715 0.00867 0.00629 0.00932 0.00606
393.13181 0.00771 0.00602 0.00282 0.00284 0.00311
393.14032 0.00107 0.00479 0.00346 0.00485 0.00590
393.14888 0.00487 0.00804 0.00456 0.00760 0.00595
393.15739 0.00837 0.00802 0.00456 0.00325 0.00405
393.16592 0.00446 0.00710 0.00524 0.00475 0.00636
393.17443 0.00915 0.00612 0.00802 0.00755 0.00754
393.18298 0.00691 0.00871 0.00578 0.00529 0.00718
393.19150 0.00717 0.00630 0.00632 0.00773 0.00907
393.20001 0.00836 0.00934 0.00642 0.00837 0.00835
393.20857 0.00474 0.00872 0.00444 0.00666 0.00447
393.21708 0.00431 0.00480 0.00080 0.00351 0.00538
393.22561 0.00543 0.00591 0.00405 0.00381 0.00543
393.23412 0.00624 0.00617 0.00566 0.00653 0.00244
393.24268 0.00597 0.00806 0.00215 0.00462 0.00596
393.25119 0.00731 0.00456 0.00376 0.00760 0.00162
393.25972 0.00692 0.00632 0.00256 0.00422 0.00666
393.26823 0.00689 0.00468 0.00685 0.00339 0.00392
393.27678 0.00774 0.00792 0.00957 0.01020 0.00935
393.28530 0.00041 0.00549 0.00443 0.00772 0.00662
393.29382 0.00809 0.00908 0.00401 0.00513 0.00593
393.30234 0.00431 0.00480 0.00695 0.00593 0.00646
393.31086 0.00336 0.00625 0.00546 0.00390 0.00443
393.31938 0.00512 0.00479 0.00641 0.00702 0.00323
393.32792 0.00419 0.00655 0.00309 0.00610 0.00743
393.33645 0.00859 0.00452 0.00587 0.00431 0.00403
393.34496 0.00379 0.00456 0.00458 0.00598 0.00488
393.35348 0.01088 0.00652 0.00387 0.00499 0.00982
393.36200 0.00609 0.00682 0.00336 0.00637 0.00501
393.37052 0.00633 0.00680 0.00628 0.00580 0.00552
393.37907 0.00676 0.00696 0.00537 0.00352 0.00649
393.38759 0.00472 0.00681 0.00549 0.00635 0.00256
393.39611 0.00909 0.00927 0.00633 0.00721 0.00556
393.40463 0.00608 0.00896 0.00443 0.00447 0.00609
393.41315 0.00568 0.00858 0.00645 0.00515 0.00704
393.42167 0.00801 0.00605 0.00391 0.00286 0.00855
393.43019 0.00392 0.00548 0.00550 0.00230 0.00203
393.43871 0.00639 0.00525 0.00715 0.00286 0.00720
393.44722 0.00177 0.00552 0.00553 0.00395 0.00638
393.45574 0.00396 0.00689 0.00691 0.00588 0.00450
393.46426 0.00394 0.00552 0.00202 0.00586 0.00530
393.47281 0.00634 0.00734 0.00710 0.00609 0.00877
393.48133 0.00586 0.00714 0.00663 0.00423 0.00422
393.48985 0.00865 0.00668 0.00456 0.00732 0.00649
393.49837 0.00803 0.00524 0.00499 0.00232 0.00748
393.50689 0.00339 0.00550 0.00767 0.00475 0.00257
393.51541 0.00513 0.00668 0.00054 0.00568 0.00567
393.52392 0.00573 0.00270 0.00433 0.00192 0.00600
393.53245 0.00313 0.00686 0.00310 0.00559 0.00720
393.54096 0.00463 0.00620 0.00378 0.00382 0.00681
393.54949 0.00446 0.00710 0.00551 0.00231 0.00825
393.55800 0.00464 0.00432 0.00569 0.00657 0.00436
393.56653 0.00082 0.00377 0.00459 0.00273 0.00354
393.57504 0.00532 0.00662 0.00393 0.00616 0.00396
393.58355 0.00299 0.00161 0.00323 0.00517 0.00271
393.59208 0.00328 0.00298 0.00190 0.00549 0.00246
393.60059 0.00245 0.00513 0.00514 0.00273 0.00136
393.60912 0.00515 0.00725 0.00350 0.00326 0.00623
393.61760 0.00447 0.00684 0.00686 0.00447 0.00501
393.62613 0.00745 0.00470 0.00794 0.00502 0.00393
393.63464 0.00529 0.01006 0.00390 0.00530 0.00609
393.64317 0.00218 0.00405 0.00811 0.00628 0.00300
393.65168 0.00882 0.00443 0.00713 0.00639 0.00691
393.66020 0.00477 0.00553 0.00419 0.00478 0.00694
393.66872 0.00595 0.00937 0.00564 0.00733 0.00622
393.67724 0.00502 0.00416 0.00632 0.00557 0.00637
393.68576 0.00633 0.00520 0.00575 0.00607 0.00659
393.69428 0.00419 0.00655 0.00550 0.00420 0.00473
393.70277 0.00833 0.00665 0.01067 0.00242 0.00564
393.71128 0.00366 0.00576 0.00148 0.00258 0.00610
393.71980 0.00605 0.00573 0.00334 0.00553 0.00363
393.72832 0.00431 0.00560 0.00455 0.00459 0.00377
393.73684 0.00040 0.00412 0.00360 0.00256 0.00282
393.74536 0.00552 0.00627 0.00361 0.00338 0.00417
393.75388 0.00646 0.00559 0.00347 0.00378 0.00054
393.76237 0.00338 0.00574 0.00442 0.00095 0.00500
393.77089 0.00704 0.00804 0.00779 0.00895 0.00622
393.77940 0.00148 0.00306 0.00467 0.00391 0.00417
393.78793 0.00485 0.00347 0.00294 0.00378 0.00674
393.79644 0.00745 0.00684 0.00579 0.00720 0.00176
393.80494 0.00271 0.00617 0.00404 0.00326 0.00651
393.81345 0.00108 0.00429 0.00107 0.00163 0.00378
393.82197 0.00544 0.00781 0.00757 0.00355 0.00381
393.83049 0.00528 -0.00040 0.00255 0.00448 0.00311
393.83897 0.00525 0.00547 0.00709 0.00473 0.00552
393.84750 0.00716 0.00683 0.00551 0.00501 0.00500
393.85601 0.00296 0.00186 0.00401 0.00108 0.00376
393.86454 0.00296 0.00240 0.00241 0.00324 0.00430
393.87302 0.00791 0.00809 0.00839 0.00819 0.00710
393.88155 0.00554 0.00548 0.00255 0.00419 0.00526
393.89006 0.00323 0.00772 0.00614 0.00377 0.00564
393.89858 0.00513 0.00428 0.00724 0.00758 0.00458
393.90707 0.00188 0.00292 0.00186 0.00134 0.00241
393.91559 0.00282 0.00412 0.00519 0.00524 0.00469
393.92411 0.00362 0.00544 0.00439 0.00497 0.00629
393.93260 0.00483 0.00452 0.00773 0.00673 0.00430
393.94112 0.00362 0.00358 0.00173 0.00309 0.00281
393.94963 0.00792 0.00572 0.00681 0.00713 0.00497
393.95812 0.00338 0.00201 0.00443 0.00501 0.00662
393.96664 0.00670 0.00558 0.00692 0.00591 0.00295
393.97516 0.00323 0.00373 0.00614 0.00350 0.00269
393.98365 0.00094 0.00200 0.00281 0.00068 -0.00040
393.99217 0.00524 0.00546 0.00307 0.00552 0.00309
394.00069 0.00470 0.00386 0.00520 0.00660 0.00524
394.00918 0.00405 0.00937 0.00376 0.00542 0.00730
394.01769 0.00310 0.00494 0.00281 0.00095 0.00526
394.02619 0.00431 0.00588 0.00187 0.00783 0.00458
394.03470 0.00447 0.00362 0.00175 0.00502 0.00827
394.04323 0.00487 0.00536 0.00295 0.00515 0.00352
394.05171 0.00082 0.00324 0.00027 0.00082 0.00218
394.06023 0.00351 -0.00107 0.00241 0.00000 0.00567
394.06872 0.00502 0.00497 0.00175 0.00095 0.00230
394.07723 -0.00081 0.00376 0.00108 0.00326 0.00136
394.08573 0.00501 0.00308 0.00336 0.00529 0.00420
394.09424 0.00608 0.00147 0.00255 0.00203 0.00338
394.10277 0.00148 0.00574 0.00174 -0.00014 0.00579
394.11125 0.00405 0.00455 0.00590 0.00135 0.00405
394.11977 0.00661 0.00334 0.00549 0.00879 0.00553
394.12826 0.00542 0.00590 0.00323 0.00461 0.00135
394.13678 0.00027 0.00348 -0.00027 0.00271 0.00514
394.14527 0.00108 0.00161 0.00188 0.00217 0.00081
394.15379 0.00583 0.00551 0.00310 0.00448 0.00556
394.16227 0.00310 0.00308 0.00469 0.00203 0.00337
394.17080 0.00618 0.00346 0.00613 0.00458 0.00430
394.17928 0.00434 0.00402 0.00296 0.00652 0.00135
394.18781 0.00216 0.00240 0.00214 0.00351 0.00108
394.19629 0.00349 0.00691 0.00187 0.00431 0.00054
394.20481 0.00416 0.00519 0.00174 0.00337 0.00417
394.21330 0.00161 0.00426 0.00241 0.00270 0.00484
394.22178 0.00162 0.00560 0.00481 0.00216 -0.00135
394.23031 0.00724 0.00770 0.00559 0.00726 0.00911
394.23879 0.00553 0.00922 0.00415 0.00554 0.00769
394.24732 0.00201 0.00306 0.00387 0.00309 0.00389
394.25580 0.00161 0.00479 0.00320 0.00296 0.00456
394.26432 0.00414 0.00066 0.00332 0.00736 -0.00013
394.27281 0.00443 0.00519 0.00040 0.00067 0.00309
394.28130 0.00227 0.00488 0.00225 0.00200 0.00227
394.28982 0.00336 0.00413 0.00521 0.00391 0.00309
394.29831 0.00334 0.00437 0.00226 0.00737 0.00494
394.30682 0.00562 0.00398 0.00293 0.00617 0.00589
394.31531 -0.00013 0.00279 0.00226 0.00363 0.00040
394.32380 0.00134 0.00371 0.00372 0.00161 0.00509
394.33232 0.00374 0.00556 0.00318 0.00428 0.00641
394.34081 0.00254 0.00490 0.00518 0.00174 0.00254
394.34929 0.00361 0.00331 0.00199 0.00308 0.00254
394.35782 0.00484 0.00505 0.00373 0.00323 0.00107
394.36630 0.00613 0.00449 0.00397 0.00187 0.00426
394.37480 0.00334 0.00225 0.00199 0.00469 0.00201
394.38331 0.00094 0.00226 0.00253 0.00471 0.00550
394.39181 0.00308 0.00252 0.00199 0.00094 0.00094
394.40029 0.00295 0.00825 0.00347 0.00135 0.00349
394.40878 0.00549 0.00597 0.00333 0.00013 0.00228
394.41730 0.00457 -0.00027 0.00080 0.00404 0.00000
394.42579 0.00616 0.00663 0.00425 0.00698 0.00562
394.43428 0.00027 0.00080 0.00187 -0.00108 0.00000
394.44279 -0.00148 0.00120 0.00120 -0.00202 -0.00013
394.45128 -0.00013 0.00306 0.00333 -0.00013 0.00094
394.45977 0.00685 0.00386 0.00494 0.00498 0.00793
394.46826 0.00094 0.00413 0.00495 0.00364 0.00283
394.47678 0.00215 0.00186 0.00107 0.00351 0.00135
394.48527 0.00067 0.00040 0.00414 0.00337 0.00202
394.49375 0.00736 0.00675 0.00704 0.00416 0.00414
394.50225 0.00338 0.00335 0.00443 0.00203 0.00230
394.51073 0.00284 0.00201 0.00308 0.00041 0.00283
394.51926 0.00351 0.00535 0.00590 0.00189 0.00404
394.52774 0.00095 0.00202 0.00337 0.00177 -0.00041
394.53623 0.00121 0.00120 0.00361 -0.00013 0.00606
394.54472 0.00580 0.00387 0.00415 0.00203 0.00283
394.55321 0.00638 0.00712 0.00391 0.00586 0.00746
394.56173 0.00297 0.00535 0.00188 0.00758 0.00432
394.57021 0.00499 0.00494 0.00576 0.00880 0.00445
394.57870 0.00390 0.00120 0.00254 0.00256 0.00229
394.58719 0.00418 0.00468 0.00335 0.00501 0.00229
394.59568 0.00624 0.00376 0.00189 0.00571 0.00461
394.60416 0.00391 0.00441 0.00389 0.00419 0.00283
394.61266 0.00337 0.00280 0.00414 0.00283 -0.00202
394.62117 0.00297 0.00536 0.00430 0.00678 0.00270
394.62967 0.00361 0.00146 0.00199 0.00497 0.00201
394.63815 0.00175 0.00120 0.00414 0.00256 0.00336
394.64664 0.00000 0.00320 0.00374 0.00270 0.00296
394.65513 0.00563 0.00318 0.00399 0.00296 0.00080
394.66362 -0.00094 0.00413 0.00281 -0.00014 0.00175
394.67211 0.00269 0.00053 0.00346 0.00350 0.00134
394.68060 0.00040 0.00199 0.00173 0.00336 0.00201
394.68908 0.00322 0.00293 0.00427 0.00108 0.00322
394.69757 0.00430 0.00399 0.00427 0.00539 0.00484
394.70606 0.00417 0.00173 0.00414 0.00364 0.00336
394.71455 0.00593 0.00641 0.00401 0.00243 0.00539
394.72304 0.00121 0.00200 0.00147 0.00202 0.00255
394.73152 0.00188 0.00320 0.00267 0.00081 0.00108
394.74002 0.00444 0.00733 0.00574 0.00499 0.00498
394.74850 0.00767 0.00492 0.00547 0.00553 0.00659
394.75700 0.00054 0.00373 0.00534 0.00540 0.00484
394.76548 0.00401 0.00053 -0.00027 -0.00027 0.00027
394.77397 0.00295 0.00266 0.00293 0.00269 0.00215
394.78246 0.00200 0.00781 0.00623 0.00469 0.00227
394.79095 0.00431 0.00346 0.00881 0.00216 0.00215
394.79943 0.00467 0.00383 0.00597 0.00710 0.00762
394.80793 0.00200 0.00277 0.00145 0.00414 -0.00067
394.81641 0.00107 0.00424 0.00612 0.00322 0.00054
394.82490 0.00479 0.00632 0.00502 0.00240 0.00346
394.83339 0.00146 0.00250 0.00145 0.00465 0.00199
394.84187 0.00199 0.00433 0.00355 0.00492 0.00252
394.85037 0.00279 0.00513 0.00594 0.00466 0.00465
394.85885 0.00278 0.00302 -0.00039 0.00518 0.00252
394.86735 0.00292 0.00289 0.00343 0.00106 0.00027
394.87583 0.00306 0.00434 0.00251 0.00413 -0.00013
394.88432 0.00319 0.00316 0.00449 0.00400 0.00452
394.89281 0.00373 0.00263 0.00449 -0.00027 0.00133
394.90130 -0.00146 0.00223 0.00250 0.00226 0.00146
394.90975 0.00093 0.00724 0.00383 0.00120 0.00067
394.91825 0.00319 0.00553 0.00502 0.00347 0.00133
394.92673 0.00265 0.00368 0.00026 0.00319 0.00372
394.93522 0.00601 0.00674 0.00278 0.00495 0.00547
394.94371 0.00705 0.00697 0.00541 0.00706 0.00412
394.95219 0.00120 0.00224 0.00410 0.00200 0.00333
394.96069 0.00450 0.00524 0.00683 0.00345 0.00397
394.96914 0.00467 0.00172 0.00463 0.00094 0.00413
394.97764 0.00534 0.00687 0.00556 0.00588 0.00640
394.98612 0.00093 0.00172 0.00304 0.00200 0.00280
394.99461 0.00106 0.00527 0.00291 0.00427 0.00133
395.00310 0.00333 0.00224 0.00198 0.00334 0.00253
395.01156 0.00480 0.00475 0.00318 0.00535 0.00506
395.02004 0.00306 0.00119 0.00066 0.00013 -0.00093
395.02854 0.00545 0.00434 -0.00145 0.00333 0.00119
395.03702 0.00545 0.00434 0.00646 0.00626 0.00624
395.04552 0.00160 0.00000 0.00317 0.00347 0.00293
395.05397 0.00066 0.00353 0.00144 0.00198 0.00541
395.06245 0.00212 -0.00053 -0.00211 0.00399 0.00478
395.07095 0.00412 0.00224 0.00251 0.00173 0.00279
395.07943 0.00505 0.00447 0.00343 0.00213 0.00159
395.08789 0.00464 0.00276 0.00382 -0.00013 0.00199
395.09638 0.00560 0.00132 0.00000 0.00347 0.00266
395.10487 0.00516 0.00275 0.00118 0.00305 0.00357
395.11333 0.00374 0.00476 0.00318 0.00375 0.00427
395.12182 0.00663 0.00472 0.00448 0.00345 0.00345
395.13030 0.00319 0.00184 0.00158 0.00133 0.00532
395.13880 0.00040 0.00223 0.00250 0.00226 0.00146
395.14725 0.00200 0.00409 0.00410 0.00467 -0.00013
395.15574 0.00662 0.00577 0.00237 0.00451 0.00556
395.16423 0.00505 0.00368 0.00238 0.00533 0.00345
395.17269 0.00409 0.00379 0.00223 0.00410 0.00251
395.18118 0.00226 0.00329 0.00699 0.00706 0.00332
395.18966 0.00237 0.00549 0.00000 0.00529 0.00343
395.19812 0.00039 0.00300 0.00301 0.00277 0.00276
395.20661 0.00318 0.00131 0.00395 0.00266 0.00132
395.21507 0.00183 0.00000 0.00312 0.00657 0.00209
395.22355 0.00315 0.00493 0.00182 0.00368 0.00288
395.23205 0.00197 0.00534 0.00301 0.00224 0.00434
395.24050 0.00263 0.00416 0.00209 0.00290 -0.00026
395.24900 0.00757 0.00414 0.00570 0.00550 0.00470
395.25745 0.00314 0.00518 0.00467 0.00314 0.00601
395.26594 0.00196 0.00506 0.00559 0.00328 0.00092
395.27443 0.00475 0.00522 0.00628 0.00607 0.00369
395.28289 0.00302 0.00299 -0.00013 0.00487 0.00381
395.29137 0.00209 0.00362 0.00311 0.00314 0.00418
395.29984 0.00432 0.00376 0.00091 0.00355 0.00170
395.30832 0.00263 0.00286 0.00052 0.00316 0.00131
395.31677 0.00275 0.00506 0.00039 0.00144 0.00196
395.32527 0.00653 0.00440 0.00234 0.00105 0.00052
395.33375 -0.00013 0.00143 0.00143 0.00564 0.00485
395.34222 0.00365 0.00465 0.00104 0.00366 0.00078
395.35070 0.00300 0.00426 0.00272 0.00535 0.00404
395.35916 0.00480 0.00476 0.00348 0.00768 0.00403
395.36765 0.00273 0.00399 0.00116 0.00248 0.00325
395.37611 0.00248 0.00375 0.00091 0.00327 0.00614
395.38459 0.00285 0.00180 0.00309 0.00182 0.00130
395.39306 0.00156 0.00308 0.00052 0.00286 0.00467
395.40151 0.00606 0.00498 0.00704 0.00452 0.00271
395.41000 0.00142 0.00396 0.00295 -0.00065 -0.00065
395.41846 0.00231 0.00509 0.00638 0.00541 0.00231
395.42695 0.00679 0.00317 0.00242 0.00347 0.00525
395.43540 0.00646 0.00281 -0.00051 0.00388 0.00568
395.44389 0.00465 0.00358 0.00385 0.00518 0.00388
395.45235 0.00193 0.00471 0.00370 0.00425 0.00552
395.46084 0.00039 0.00191 0.00268 -0.00090 0.00039
395.46930 -0.00141 0.00063 -0.00089 -0.00038 -0.00013
395.47775 0.00387 -0.00102 0.00179 0.00207 0.00181
395.48625 0.00297 0.00192 0.00346 0.00349 0.00168
395.49470 0.00166 0.00190 0.00165 0.00449 0.00064
395.50319 0.00180 0.00178 0.00307 0.00000 0.00464
395.51165 -0.00039 0.00191 0.00319 0.00116 0.00116
395.52011 -0.00051 -0.00127 0.00051 0.00077 -0.00026
395.52859 0.00295 0.00494 0.00292 0.00295 0.00295
395.53706 0.00347 0.00242 0.00089 0.00374 0.00450
395.54551 0.00569 0.00410 0.00540 0.00337 0.00362
395.55400 0.00335 0.00357 -0.00077 0.00413 0.00129
395.56246 0.00051 0.00254 0.00306 0.00155 0.00257
395.57091 0.00078 0.00332 0.00385 0.00207 0.00336
395.57941 0.00323 0.00345 0.00192 0.00091 0.00194
395.58786 0.00386 0.00357 0.00256 0.00284 0.00540
395.59632 0.00244 0.00545 0.00572 0.00527 0.00243
395.60481 0.00270 0.00115 -0.00038 0.00116 0.00193
395.61327 0.00103 -0.00102 0.00281 0.00490 0.00257
395.62172 0.00090 -0.00038 -0.00115 -0.00116 0.00039
395.63022 0.00332 0.00481 0.00076 0.00154 0.00435
395.63867 0.00258 0.00230 0.00333 -0.00052 0.00232
395.64713 0.00445 0.00239 0.00265 0.00293 0.00190
395.65559 0.00438 0.00127 0.00205 0.00129 0.00309
395.66408 0.00484 0.00454 0.00329 0.00102 0.00305
395.67253 0.00591 0.00636 0.00306 0.00515 0.00436
395.68099 0.00562 0.00303 0.00406 0.00409 0.00153
395.68945 0.00320 0.00444 0.00522 0.00116 0.00013
395.69794 0.00488 0.00305 0.00051 0.00257 0.00282
395.70640 0.00141 0.00622 0.00038 0.00116 0.00013
395.71485 0.00397 -0.00038 -0.00013 0.00423 0.00038
395.72332 -0.00013 0.00293 0.00038 0.00271 -0.00039
395.73177 -0.00102 -0.00076 -0.00076 -0.00180 0.00051
395.74026 0.00309 0.00076 0.00281 0.00052 0.00309
395.74872 0.00231 0.00635 0.00255 0.00026 0.00436
395.75718 0.00128 0.00229 0.00280 0.00309 0.00205
395.76563 0.00116 -0.00013 0.00320 0.00271 0.00090
395.77410 0.00155 0.00561 0.00588 0.00181 0.00592
395.78255 0.00244 0.00343 0.00242 0.00296 0.00346
395.79104 0.00437 0.00407 0.00256 0.00361 0.00283
395.79950 0.00064 0.00242 0.00115 0.00168 0.00322
395.80795 0.00439 0.00332 0.00205 0.00129 0.00490
395.81641 0.00090 0.00419 0.00242 0.00064 0.00039
395.82487 0.00398 0.00292 0.00497 0.00039 0.00244
395.83333 0.00514 0.00509 0.00357 0.00412 0.00257
395.84178 0.00374 0.00549 0.00269 -0.00065 -0.00090
395.85025 0.00463 0.00102 0.00383 0.00592 0.00385
395.85873 0.00283 -0.00076 0.00486 0.00490 0.00283
395.86719 0.00385 0.00305 0.00229 0.00334 0.00410
395.87565 0.00244 0.00419 0.00497 -0.00064 0.00372
395.88411 -0.00013 0.00320 0.00269 0.00479 0.00659
395.89256 0.00039 0.00140 0.00320 0.00401 -0.00193
395.90103 0.00026 0.00102 0.00153 0.00335 0.00077
395.90948 0.00154 0.00025 0.00153 -0.00077 -0.00051
395.91794 -0.00051 0.00229 0.00026 0.00541 0.00026
395.92640 0.00295 0.00165 0.00624 0.00244 -0.00013
395.93485 0.00293 0.00088 0.00570 0.00320 0.00497
395.94331 0.00356 0.00353 0.00455 0.00255 0.00356
395.95177 -0.00026 0.00228 0.00025 0.00591 0.00051
395.96023 0.00319 0.00542 0.00417 0.00217 0.00242
395.96868 -0.00026 0.00102 0.00408 0.00051 0.00051
395.97715 0.00435 0.00583 0.00051 0.00257 0.00538
395.98560 0.00331 0.00328 0.00278 0.00408 0.00153
395.99406 0.00382 0.00504 0.00202 0.00639 0.00382
396.00252 0.00128 0.00633 0.00279 0.00590 0.00384
396.01098 0.00316 0.00113 0.00339 0.00013 0.00266
396.01943 0.00102 0.00378 0.00126 0.00153 0.00306
396.02790 0.00241 0.00038 0.00214 0.00572 0.00165
396.03635 -0.00025 0.00351 0.00075 0.00025 0.00152
396.04481 0.00242 0.00139 -0.00063 0.00191 0.00268
396.05327 0.00140 0.00138 0.00290 0.00216 0.00165
396.06172 0.00354 0.00225 0.00101 0.00584 -0.00101
396.07018 0.00357 0.00454 0.00506 0.00383 0.00331
396.07861 0.00495 0.00566 0.00341 0.00064 0.00495
396.08707 0.00141 0.00445 0.00395 0.00399 0.00449
396.09552 0.00443 -0.00013 -0.00088 0.00343 -0.00013
396.10399 0.00355 0.00426 0.00277 0.00203 0.00380
396.11244 0.00627 0.00570 0.00470 0.00372 0.00397
396.12090 0.00318 0.00239 0.00341 0.00191 -0.00216
396.12936 0.00077 0.00657 0.00076 0.00307 0.00128
396.13782 0.00217 0.00114 0.00139 0.00243 0.00038
396.14624 -0.00115 0.00038 0.00316 0.00268 -0.00166
396.15471 0.00152 0.00376 0.00050 0.00279 0.00278
396.16316 0.00089 0.00288 0.00415 0.00495 0.00342
396.17161 0.00406 0.00050 -0.00126 0.00483 0.00025
396.18008 -0.00025 0.00303 0.00101 0.00153 0.00025
396.18853 0.00317 0.00414 0.00265 0.00140 0.00038
396.19696 0.00543 0.00288 0.00238 0.00089 -0.00063
396.20542 0.00152 0.00326 0.00302 0.00507 0.00076
396.21388 -0.00064 0.00113 0.00038 0.00089 0.00038
396.22233 0.00443 0.00288 0.00289 0.00317 0.00038
396.23080 0.00241 0.00490 0.00214 0.00267 0.00495
396.23922 0.00279 0.00176 0.00377 0.00483 0.00279
396.24768 -0.00368 -0.00088 -0.00088 -0.00089 -0.00165
396.25614 -0.00013 0.00214 0.00013 -0.00140 0.00115
396.26460 0.00269 0.00594 0.00368 0.00551 0.00498
396.27302 0.00064 0.00214 0.00088 0.00115 0.00114
396.28149 0.00063 -0.00263 -0.00063 0.00292 0.00393
396.28994 0.00191 0.00265 0.00089 0.00217 0.00701
396.29839 0.00140 0.00063 -0.00013 0.00064 0.00114
396.30683 0.00127 0.00227 0.00278 0.00230 0.00280
396.31528 0.00180 0.00025 0.00280 0.00360 0.00026
396.32374 0.00382 0.00530 0.00025 0.00102 0.00127
396.33217 -0.00064 0.00140 0.00013 0.00142 0.00013
396.34063 0.00486 0.00557 0.00507 0.00461 0.00639
396.34908 0.00488 0.00356 0.00434 0.00206 0.00206
396.35752 -0.00064 0.00315 0.00038 0.00268 0.00472
396.36597 0.00308 0.00051 0.00000 -0.00026 0.00359
396.37443 0.00090 0.00291 0.00165 -0.00064 0.00218
396.38285 0.00205 0.00253 0.00229 0.00257 0.00102
396.39132 -0.00128 0.00203 0.00204 -0.00026 0.00282
396.39977 0.00345 0.00418 0.00572 0.00346 0.00115
396.40820 0.00218 -0.00038 -0.00191 0.00347 0.00090
396.41666 -0.00076 0.00202 0.00177 0.00051 0.00000
396.42508 0.00218 0.00115 0.00268 0.00399 0.00270
396.43354 0.00217 0.00569 0.00367 0.00499 0.00370
396.44200 0.00218 0.00469 0.00267 0.00629 0.00090
396.45043 0.00308 -0.00051 0.00382 0.00051 0.00179
396.45888 0.00527 0.00267 0.00268 0.00425 0.00270
396.46732 0.00102 -0.00051 0.00051 0.00180 0.00384
396.47577 0.00232 0.00128 0.00256 0.00388 0.00077
396.48423 0.00590 0.00660 0.00560 0.00566 0.00513
396.49266 0.00039 -0.00013 -0.00064 -0.00039 -0.00116
396.50112 0.00051 -0.00101 -0.00127 0.00180 0.00026
396.50954 0.00244 0.00215 0.00165 0.00218 0.00064
396.51801 0.00128 0.00152 -0.00280 -0.00360 -0.00128
396.52643 0.00360 0.00483 0.00204 0.00437 0.00026
396.53489 0.00256 0.00279 0.00662 0.00437 0.00256
396.54331 -0.00103 0.00153 0.00307 0.00181 0.00309
396.55177 0.00230 0.00228 0.00228 0.00513 0.00204
396.56020 0.00244 -0.00089 0.00370 0.00323 0.00064
396.56865 -0.00103 0.00228 0.00331 0.00154 0.00615
396.57709 0.00562 0.00152 0.00203 0.00461 0.00153
396.58554 0.00207 0.00588 0.00103 0.00259 0.00362
396.59397 0.00038 0.00114 0.00292 0.00244 0.00294
396.60243 0.00078 -0.00102 0.00154 0.00130 0.00207
396.61086 -0.00128 0.00102 -0.00153 0.00206 0.00051
396.61931 0.00424 0.00292 -0.00013 0.00142 0.00116
396.62775 0.00245 0.00191 0.00089 0.00271 0.00270
396.63620 0.00090 0.00496 0.00396 0.00348 0.00578
396.64463 0.00167 -0.00013 -0.00115 0.00090 -0.00090
396.65305 -0.00090 -0.00064 -0.00064 0.00039 -0.00245
396.66151 -0.00244 -0.00089 0.00089 0.00193 -0.00116
396.66994 0.00556 0.00730 0.00758 0.00687 0.00712
396.67839 0.00158 0.00496 0.00026 0.00396 0.00079
396.68683 0.00276 0.00110 0.00220 -0.00110 0.00303
