# Columns are Wavelength, tx_c, tx_t, tx_l, tx_r, tx_b, oob_c
388.07996 0.00026 0.00103 0.00142 0.00000 0.00077 0.00015
388.08873 -0.00066 -0.00146 0.00093 0.00000 -0.00146 0.00014
388.09749 -0.00171 -0.00026 -0.00210 -0.00210 -0.00118 0.00013
388.10622 -0.00052 0.00039 -0.00170 0.00170 -0.00209 0.00011
388.11499 0.00157 -0.00026 -0.00105 -0.00026 -0.00039 0.00012
388.12375 0.00208 0.00208 0.00169 0.00169 0.00298 0.00012
388.13252 -0.00131 0.00039 -0.00118 -0.00236 -0.00079 0.00014
388.14124 -0.00118 -0.00065 -0.00013 -0.00091 -0.00170 0.00012
388.15001 0.00222 0.00026 0.00131 0.00000 0.00065 0.00014
388.15877 -0.00013 0.00065 0.00118 0.00078 0.00078 0.00012
388.16751 0.00039 -0.00013 0.00104 0.00039 0.00117 0.00012
388.17627 -0.00026 0.00065 -0.00052 -0.00065 -0.00130 0.00005
388.18504 0.00065 0.00052 -0.00118 -0.00183 0.00000 0.00007
388.19379 -0.00039 0.00052 -0.00143 0.00130 -0.00091 0.00013
388.20253 -0.00039 0.00144 -0.00026 -0.00091 -0.00091 0.00013
388.21129 0.00104 0.00013 0.00065 0.00104 0.00013 0.00013
388.22006 0.00092 0.00131 0.00210 0.00144 0.00171 0.00011
388.22879 0.00078 0.00039 0.00039 -0.00091 -0.00026 0.00014
388.23756 0.00052 -0.00117 0.00026 -0.00078 0.00013 0.00014
388.24631 0.00169 0.00091 0.00169 0.00078 0.00143 0.00013
388.25504 -0.00092 0.00052 -0.00078 0.00026 0.00013 0.00014
388.26381 -0.00197 -0.00118 -0.00052 -0.00052 -0.00013 0.00013
388.27254 -0.00013 0.00000 0.00026 -0.00026 0.00131 0.00012
388.28131 0.00131 0.00222 0.00301 0.00209 0.00144 0.00013
388.29007 0.00119 0.00159 -0.00066 -0.00053 0.00013 0.00013
388.29880 0.00238 0.00159 0.00225 0.00119 0.00146 0.00013
388.30756 0.00066 -0.00119 0.00053 0.00119 -0.00066 0.00012
388.31633 0.00000 -0.00080 0.00053 0.00013 0.00040 0.00016
388.32506 -0.00080 -0.00013 -0.00040 0.00013 0.00040 0.00015
388.33383 0.00066 0.00000 0.00013 0.00053 -0.00066 0.00013
388.34256 -0.00026 -0.00040 -0.00040 -0.00053 -0.00013 0.00016
388.35132 -0.00079 0.00000 0.00013 0.00040 0.00106 0.00015
388.36008 0.00105 -0.00079 0.00132 0.00066 0.00079 0.00015
388.36882 0.00026 0.00052 0.00013 0.00052 -0.00236 0.00015
388.37758 0.00331 0.00397 0.00397 0.00304 0.00159 0.00012
388.38632 0.00185 -0.00013 0.00212 0.00066 0.00172 0.00014
388.39508 0.00120 0.00013 -0.00160 0.00053 0.00013 0.00015
388.40380 -0.00053 -0.00212 -0.00106 -0.00133 -0.00106 0.00014
388.41257 0.00186 0.00053 0.00146 0.00119 0.00119 0.00017
388.42130 0.00040 -0.00092 -0.00026 -0.00079 0.00000 0.00014
388.43007 0.00146 -0.00053 0.00172 0.00040 0.00106 0.00014
388.43880 -0.00211 -0.00013 0.00000 -0.00066 -0.00026 0.00015
388.44757 0.00013 0.00000 0.00000 -0.00106 -0.00040 0.00013
388.45629 0.00171 0.00132 0.00145 0.00197 0.00158 0.00011
388.46506 0.00145 0.00039 0.00000 0.00158 0.00171 0.00015
388.47379 -0.00026 -0.00013 -0.00039 -0.00131 -0.00052 0.00016
388.48256 -0.00079 0.00040 -0.00079 -0.00053 -0.00053 0.00014
388.49129 0.00079 0.00053 -0.00026 0.00053 -0.00040 0.00016
388.50006 0.00066 -0.00026 0.00106 -0.00106 -0.00158 0.00015
388.50878 0.00013 0.00185 0.00000 0.00000 0.00013 0.00013
388.51755 0.00066 -0.00171 -0.00026 -0.00092 -0.00119 0.00013
388.52628 0.00026 0.00249 0.00223 0.00013 0.00157 0.00013
388.53505 0.00079 0.00000 0.00000 -0.00013 -0.00039 0.00012
388.54378 0.00039 -0.00066 -0.00066 -0.00013 -0.00039 0.00015
388.55254 0.00066 0.00040 -0.00026 0.00053 0.00079 0.00016
388.56127 0.00092 0.00040 -0.00079 0.00040 0.00079 0.00014
388.57003 -0.00013 0.00026 -0.00092 -0.00040 -0.00198 0.00014
388.57877 0.00053 0.00013 0.00106 0.00053 0.00172 0.00016
388.58750 0.00145 0.00105 0.00118 0.00105 0.00132 0.00013
388.59627 0.00013 0.00026 0.00039 -0.00026 0.00026 0.00015
388.60499 0.00039 -0.00171 -0.00171 -0.00039 -0.00157 0.00015
388.61376 -0.00093 0.00000 0.00079 -0.00119 -0.00106 0.00014
388.62249 0.00000 -0.00105 -0.00171 -0.00211 -0.00105 0.00014
388.63123 0.00000 0.00026 -0.00105 0.00052 0.00052 0.00014
388.63999 0.00105 -0.00026 -0.00079 0.00092 -0.00040 0.00015
388.64873 -0.00066 -0.00211 -0.00079 -0.00066 -0.00158 0.00013
388.65748 0.00171 0.00105 0.00197 0.00026 0.00262 0.00014
388.66622 0.00118 0.00052 -0.00105 0.00039 -0.00092 0.00013
388.67495 0.00000 -0.00013 0.00132 -0.00013 0.00066 0.00016
388.68372 -0.00013 0.00000 0.00040 -0.00158 -0.00106 0.00014
388.69245 0.00118 -0.00013 0.00118 0.00039 -0.00013 0.00016
388.70117 0.00105 0.00132 0.00171 0.00053 0.00053 0.00015
388.70994 -0.00132 -0.00053 0.00013 0.00159 -0.00026 0.00016
388.71867 0.00133 -0.00027 -0.00027 0.00053 -0.00013 0.00015
388.72741 0.00000 -0.00039 -0.00079 0.00026 -0.00053 0.00013
388.73617 0.00066 0.00145 0.00079 0.00026 0.00066 0.00013
388.74491 -0.00212 -0.00146 0.00119 -0.00172 -0.00106 0.00013
388.75363 0.00119 0.00146 0.00053 0.00013 0.00000 0.00014
388.76240 -0.00040 -0.00172 -0.00133 -0.00053 0.00053 0.00013
388.77113 0.00106 0.00093 0.00040 -0.00053 -0.00066 0.00015
388.77987 0.00080 -0.00093 -0.00027 0.00080 -0.00066 0.00019
388.78860 -0.00107 -0.00255 -0.00255 -0.00255 -0.00201 0.00022
388.79737 0.00160 0.00200 0.00160 0.00160 0.00160 0.00013
388.80609 -0.00094 0.00000 0.00000 -0.00107 -0.00107 0.00015
388.81483 0.00080 -0.00120 -0.00187 -0.00054 0.00013 0.00015
388.82359 0.00013 0.00027 -0.00053 0.00053 0.00187 0.00017
388.83233 0.00067 0.00027 0.00027 0.00147 -0.00040 0.00031
388.84106 0.00000 0.00053 0.00000 -0.00053 -0.00107 0.00016
388.84978 -0.00040 -0.00107 -0.00040 -0.00081 -0.00107 0.00015
388.85855 0.00000 0.00000 0.00013 -0.00107 -0.00133 0.00016
388.86728 0.00027 -0.00067 0.00107 0.00000 -0.00053 0.00013
388.87602 -0.00013 -0.00188 -0.00054 -0.00188 -0.00148 0.00016
388.88475 0.00067 0.00000 -0.00080 0.00027 -0.00173 0.00014
388.89348 0.00013 -0.00066 0.00027 -0.00027 -0.00040 0.00015
388.90224 0.00146 0.00106 0.00080 0.00093 -0.00027 0.00015
388.91098 0.00000 -0.00093 -0.00040 0.00040 -0.00172 0.00014
388.91971 0.00119 0.00027 0.00106 -0.00013 -0.00133 0.00014
388.92845 0.00093 0.00013 0.00199 0.00013 0.00080 0.00015
388.93718 0.00159 0.00186 -0.00027 0.00119 0.00119 0.00015
388.94594 0.00027 0.00213 0.00120 0.00213 0.00066 0.00015
388.95467 -0.00040 0.00013 -0.00013 -0.00013 -0.00026 0.00015
388.96341 -0.00040 0.00278 0.00013 -0.00040 -0.00040 0.00015
388.97214 0.00093 0.00000 0.00027 0.00000 -0.00053 0.00016
388.98088 -0.00080 -0.00040 0.00013 -0.00066 0.00027 0.00015
388.98960 -0.00040 0.00305 0.00119 0.00146 -0.00013 0.00014
388.99834 0.00200 0.00173 0.00227 0.00173 0.00107 0.00015
389.00710 0.00107 0.00093 0.00213 0.00067 0.00147 0.00015
389.01583 -0.00053 -0.00093 0.00013 -0.00107 0.00120 0.00013
389.02457 -0.00053 -0.00160 -0.00093 -0.00040 -0.00133 0.00018
389.03329 0.00000 -0.00067 0.00013 -0.00106 -0.00146 0.00015
389.04203 0.00145 0.00185 0.00053 0.00079 0.00013 0.00015
389.05076 0.00052 0.00118 0.00066 0.00013 0.00000 0.00015
389.05950 -0.00066 0.00079 -0.00144 0.00079 0.00066 0.00015
389.06823 -0.00171 -0.00276 -0.00105 -0.00158 -0.00171 0.00015
389.07696 0.00053 -0.00053 -0.00079 -0.00026 -0.00066 0.00015
389.08572 0.00040 -0.00145 0.00026 -0.00132 -0.00158 0.00016
389.09446 0.00052 -0.00052 -0.00039 0.00000 -0.00131 0.00014
389.10319 -0.00013 0.00185 0.00026 -0.00106 0.00172 0.00016
389.11193 0.00013 0.00144 0.00092 -0.00052 0.00118 0.00014
389.12066 -0.00091 -0.00052 -0.00091 -0.00078 -0.00091 0.00014
389.12939 0.00079 -0.00013 -0.00092 -0.00066 0.00079 0.00015
389.13812 0.00026 -0.00039 0.00144 0.00079 -0.00079 0.00015
389.14686 -0.00039 -0.00105 -0.00026 0.00092 -0.00052 0.00015
389.15559 0.00013 -0.00066 0.00000 -0.00158 -0.00053 0.00015
389.16432 0.00000 0.00106 -0.00119 -0.00079 0.00026 0.00014
389.17305 0.00079 -0.00013 0.00105 0.00066 0.00039 0.00011
389.18178 0.00026 -0.00026 0.00132 0.00105 0.00066 0.00016
389.19052 -0.00039 -0.00118 0.00013 -0.00289 -0.00013 0.00016
389.19925 0.00066 -0.00040 0.00013 0.00186 0.00066 0.00015
389.20799 -0.00026 -0.00092 -0.00013 -0.00171 -0.00092 0.00016
389.21671 0.00053 0.00040 0.00106 -0.00026 -0.00053 0.00017
389.22545 0.00066 -0.00132 0.00066 0.00026 -0.00158 0.00016
389.23418 -0.00026 -0.00105 -0.00026 -0.00211 -0.00118 0.00015
389.24292 0.00000 0.00000 0.00079 0.00026 -0.00079 0.00014
389.25165 -0.00144 -0.00092 -0.00105 -0.00157 0.00013 0.00015
389.26038 0.00040 0.00172 0.00066 0.00013 0.00053 0.00015
389.26911 0.00132 0.00225 -0.00225 -0.00119 0.00040 0.00014
389.27785 0.00093 -0.00066 0.00000 -0.00013 -0.00026 0.00017
389.28658 0.00093 0.00080 -0.00066 -0.00040 0.00040 0.00016
389.29532 0.00040 0.00000 -0.00146 0.00066 0.00066 0.00017
389.30404 0.00053 0.00053 -0.00079 -0.00224 -0.00158 0.00016
389.31274 0.00026 0.00040 0.00079 0.00000 0.00000 0.00016
389.32148 0.00040 0.00119 -0.00092 -0.00053 -0.00105 0.00015
389.33021 0.00013 -0.00052 -0.00039 -0.00092 -0.00131 0.00015
389.33895 -0.00092 -0.00158 -0.00039 0.00105 -0.00066 0.00015
389.34767 0.00026 0.00105 -0.00013 0.00013 -0.00145 0.00014
389.35641 0.00158 0.00145 0.00158 0.00224 0.00105 0.00015
389.36514 -0.00119 -0.00066 -0.00159 -0.00013 0.00000 0.00017
389.37388 0.00040 -0.00013 -0.00066 -0.00053 0.00000 0.00015
389.38261 0.00000 0.00053 0.00106 0.00079 0.00000 0.00016
389.39131 0.00159 0.00119 0.00066 0.00146 0.00133 0.00017
389.40004 -0.00079 -0.00093 0.00132 -0.00093 0.00053 0.00017
389.40878 0.00013 0.00080 0.00080 0.00013 -0.00225 0.00013
389.41751 0.00106 -0.00080 0.00159 0.00013 0.00053 0.00015
389.42625 -0.00067 -0.00013 -0.00027 0.00160 -0.00133 0.00017
389.43497 0.00079 -0.00185 -0.00132 -0.00185 0.00066 0.00018
389.44371 0.00053 0.00066 0.00224 -0.00158 0.00106 0.00009
389.45241 0.00066 0.00106 0.00132 0.00265 0.00119 0.00016
389.46114 0.00040 0.00053 -0.00040 0.00186 0.00066 0.00017
389.46987 -0.00027 -0.00066 -0.00186 -0.00093 -0.00106 0.00016
389.47860 -0.00040 -0.00013 0.00026 -0.00040 -0.00026 0.00016
389.48734 0.00105 0.00052 0.00092 0.00013 -0.00118 0.00015
389.49604 -0.00184 0.00039 0.00039 -0.00092 -0.00092 0.00016
389.50478 0.00143 0.00065 0.00039 -0.00026 -0.00117 0.00015
389.51350 -0.00144 0.00144 -0.00131 0.00118 0.00013 0.00017
389.52224 0.00130 0.00026 0.00065 -0.00052 -0.00026 0.00017
389.53097 0.00026 -0.00066 0.00039 -0.00144 0.00039 0.00015
389.53968 0.00026 0.00091 0.00104 0.00209 -0.00078 0.00018
389.54841 -0.00013 -0.00052 -0.00013 0.00039 -0.00209 0.00015
389.55714 0.00184 0.00105 0.00092 -0.00039 -0.00013 0.00012
389.56587 0.00078 0.00000 0.00091 0.00104 0.00013 -0.00030
389.57458 -0.00026 0.00039 -0.00065 0.00118 0.00000 0.00012
389.58331 -0.00052 0.00078 0.00013 -0.00078 -0.00052 0.00016
389.59205 -0.00145 0.00013 0.00105 0.00013 0.00066 0.00016
389.60074 -0.00184 -0.00066 -0.00157 -0.00039 -0.00197 0.00017
389.60947 0.00276 0.00236 0.00289 0.00118 0.00039 0.00016
389.61821 0.00013 -0.00013 0.00106 0.00159 0.00000 0.00016
389.62694 0.00105 -0.00026 -0.00052 -0.00013 -0.00039 0.00017
389.63564 0.00039 0.00065 -0.00052 0.00013 0.00182 0.00015
389.64437 -0.00052 -0.00078 -0.00065 -0.00104 -0.00117 0.00017
389.65311 -0.00091 -0.00039 -0.00078 -0.00288 -0.00118 0.00015
389.66181 0.00105 -0.00065 -0.00105 0.00052 0.00026 0.00016
389.67055 -0.00118 -0.00158 0.00039 -0.00118 -0.00118 0.00017
389.67927 0.00235 0.00170 0.00196 0.00144 0.00235 0.00016
389.68798 0.00183 -0.00131 0.00013 -0.00091 0.00065 0.00014
389.69671 0.00091 0.00104 0.00246 0.00130 -0.00052 0.00016
389.70545 -0.00064 0.00064 0.00052 0.00064 0.00077 0.00017
389.71415 -0.00026 -0.00077 -0.00142 -0.00065 0.00039 0.00017
389.72288 0.00155 -0.00013 0.00258 -0.00155 -0.00013 0.00013
389.73161 0.00000 -0.00052 0.00013 0.00000 -0.00129 0.00016
389.74032 0.00000 -0.00142 0.00000 0.00077 0.00000 0.00018
389.74905 0.00143 0.00091 0.00169 0.00117 0.00104 0.00017
389.75774 0.00013 0.00091 0.00130 0.00039 0.00013 0.00016
389.76648 0.00013 0.00077 0.00065 0.00000 0.00129 0.00016
389.77521 0.00039 0.00013 0.00090 0.00013 -0.00013 0.00015
389.78392 0.00078 -0.00013 0.00221 0.00039 0.00065 0.00016
389.79265 -0.00013 0.00065 0.00000 -0.00052 -0.00130 0.00017
389.80135 0.00116 -0.00026 0.00116 -0.00039 -0.00090 0.00017
389.81008 -0.00117 -0.00013 -0.00117 -0.00104 -0.00156 0.00017
389.81882 -0.00117 -0.00013 0.00052 0.00013 -0.00091 0.00018
389.82752 0.00156 0.00130 0.00104 0.00104 -0.00013 0.00017
389.83626 0.00157 0.00078 0.00118 0.00157 0.00000 0.00014
389.84495 -0.00026 -0.00078 0.00000 -0.00039 0.00065 0.00016
389.85369 0.00065 0.00117 0.00260 0.00312 0.00221 0.00018
389.86239 0.00000 0.00092 -0.00092 -0.00144 -0.00026 0.00018
389.87113 -0.00117 0.00000 0.00117 0.00091 0.00117 0.00016
389.87982 -0.00039 -0.00026 -0.00065 -0.00052 -0.00144 0.00017
389.88856 -0.00026 -0.00104 0.00039 0.00000 -0.00052 0.00018
389.89726 -0.00078 -0.00078 -0.00065 -0.00091 -0.00091 0.00017
389.90600 0.00103 0.00194 0.00142 0.00103 0.00039 0.00018
389.91469 0.00026 0.00078 0.00039 0.00142 0.00026 0.00016
389.92342 0.00013 -0.00052 -0.00039 0.00013 -0.00065 0.00018
389.93213 0.00013 -0.00026 0.00039 -0.00052 0.00052 0.00016
389.94086 0.00090 0.00065 -0.00026 0.00077 0.00194 0.00015
389.94957 -0.00078 0.00091 0.00117 0.00026 0.00065 0.00018
389.95829 0.00013 -0.00052 0.00117 -0.00039 -0.00104 0.00018
389.96700 0.00142 0.00194 0.00052 0.00000 0.00052 0.00017
389.97573 0.00130 0.00091 0.00065 0.00091 0.00156 0.00018
389.98444 0.00052 0.00221 0.00221 0.00143 0.00078 0.00017
389.99316 0.00117 -0.00039 0.00182 0.00117 0.00130 0.00017
390.00187 0.00052 0.00065 0.00000 -0.00130 -0.00026 0.00016
390.01060 0.00105 0.00092 -0.00026 0.00105 0.00013 0.00018
390.01931 0.00013 0.00104 0.00065 -0.00039 0.00052 0.00020
390.02801 -0.00052 -0.00195 0.00000 -0.00182 -0.00220 0.00016
390.03674 0.00039 0.00065 0.00157 0.00157 0.00078 0.00021
390.04544 0.00000 -0.00065 -0.00013 -0.00013 -0.00052 0.00016
390.05418 -0.00091 -0.00117 0.00013 0.00078 0.00091 0.00014
390.06288 0.00065 -0.00065 0.00026 0.00000 -0.00026 0.00003
390.07157 -0.00104 0.00052 -0.00013 0.00000 0.00039 0.00014
390.08031 0.00209 0.00144 -0.00039 0.00026 -0.00013 0.00017
390.08901 -0.00013 0.00013 -0.00013 0.00000 0.00065 0.00018
390.09775 -0.00078 -0.00090 -0.00013 -0.00103 -0.00155 0.00017
390.10645 0.00000 -0.00091 -0.00052 -0.00039 -0.00091 0.00018
390.11515 -0.00194 -0.00116 -0.00116 0.00026 -0.00026 0.00018
390.12388 -0.00245 -0.00181 -0.00155 -0.00194 -0.00129 0.00018
390.13259 0.00104 -0.00065 0.00013 0.00065 -0.00052 0.00019
390.14129 0.00117 0.00026 0.00130 -0.00039 -0.00026 0.00019
390.15002 -0.00039 -0.00078 -0.00117 0.00065 -0.00104 0.00018
390.15872 -0.00090 -0.00168 -0.00193 0.00052 -0.00219 0.00018
390.16743 0.00131 0.00026 -0.00013 0.00196 0.00131 0.00016
390.17616 0.00156 0.00117 0.00039 0.00078 0.00000 0.00019
390.18486 0.00078 0.00013 0.00091 -0.00182 -0.00078 0.00018
390.19356 0.00078 0.00117 -0.00013 0.00026 0.00091 0.00019
390.20230 0.00325 0.00156 0.00156 0.00195 0.00065 0.00020
390.21100 -0.00104 -0.00039 -0.00065 -0.00078 -0.00183 0.00012
390.21969 0.00091 0.00129 0.00155 0.00039 -0.00039 0.00017
390.22840 -0.00103 0.00077 0.00039 -0.00129 0.00013 0.00018
390.23713 0.00103 0.00013 -0.00077 -0.00039 -0.00090 0.00017
390.24584 0.00000 0.00026 -0.00116 -0.00259 -0.00155 0.00016
390.25454 0.00181 0.00233 0.00129 0.00129 0.00207 0.00020
390.26327 -0.00052 -0.00090 0.00026 -0.00077 -0.00103 0.00035
390.27197 0.00156 -0.00065 0.00065 0.00000 -0.00026 0.00032
390.28068 0.00103 0.00116 -0.00129 0.00091 -0.00026 0.00031
390.28938 0.00168 0.00168 0.00284 0.00284 0.00181 0.00020
390.29811 0.00039 0.00026 -0.00168 0.00039 0.00052 0.00017
390.30681 0.00064 0.00000 -0.00077 -0.00064 -0.00026 0.00016
390.31552 0.00103 0.00103 0.00206 0.00154 0.00180 0.00018
390.32422 0.00052 -0.00026 0.00013 -0.00090 -0.00180 0.00018
390.33292 0.00270 0.00039 0.00141 0.00039 -0.00026 0.00017
390.34165 0.00065 0.00077 -0.00013 0.00000 0.00026 0.00018
390.35036 0.00077 -0.00102 0.00026 0.00013 0.00077 0.00019
390.35906 0.00051 -0.00038 -0.00026 -0.00115 -0.00115 0.00026
390.36775 0.00051 -0.00205 -0.00128 -0.00090 -0.00128 0.00032
390.37646 -0.00129 0.00090 0.00077 0.00220 0.00103 0.00028
390.38519 0.00000 -0.00090 -0.00013 -0.00115 -0.00103 0.00028
390.39390 0.00129 0.00103 0.00013 0.00155 0.00000 0.00021
390.40260 -0.00039 -0.00039 -0.00026 -0.00116 0.00065 0.00017
390.41130 0.00206 0.00142 0.00206 0.00000 0.00051 0.00020
390.42000 0.00168 -0.00026 -0.00052 0.00078 0.00129 0.00019
390.42871 0.00052 -0.00026 0.00052 0.00104 -0.00130 0.00035
390.43741 0.00000 -0.00052 0.00156 0.00078 -0.00013 0.00088
390.44614 0.00130 -0.00169 -0.00078 -0.00117 -0.00052 0.00015
390.45484 0.00026 0.00052 -0.00039 0.00168 -0.00026 0.00020
390.46355 0.00129 0.00026 -0.00129 0.00103 0.00039 0.00019
390.47225 0.00168 0.00104 0.00129 0.00181 0.00039 0.00020
390.48095 0.00077 0.00013 0.00141 0.00038 0.00038 0.00019
390.48965 0.00194 0.00181 0.00245 0.00168 0.00039 0.00021
390.49836 0.00064 0.00103 0.00141 0.00039 -0.00051 0.00017
390.50706 -0.00116 -0.00116 -0.00039 -0.00193 -0.00128 0.00020
390.51576 0.00141 0.00115 0.00166 0.00115 0.00051 0.00017
390.52446 0.00051 0.00103 0.00205 0.00193 -0.00051 0.00020
390.53319 0.00013 -0.00102 -0.00154 -0.00013 -0.00205 0.00019
390.54190 0.00141 0.00102 -0.00026 0.00128 -0.00026 0.00019
390.55059 0.00064 0.00178 0.00013 -0.00076 -0.00089 0.00019
390.55930 0.00038 0.00205 0.00026 -0.00051 -0.00026 0.00019
390.56800 0.00205 0.00013 -0.00026 0.00038 0.00026 0.00018
390.57671 0.00218 -0.00013 0.00064 0.00090 0.00051 0.00021
390.58540 -0.00013 -0.00026 -0.00077 -0.00141 -0.00064 0.00020
390.59411 0.00142 0.00000 -0.00064 -0.00103 -0.00013 0.00019
390.60281 0.00103 -0.00129 -0.00090 -0.00129 -0.00103 0.00019
390.61152 0.00115 -0.00090 -0.00013 0.00141 -0.00051 0.00019
390.62021 -0.00128 0.00026 -0.00141 -0.00180 -0.00167 0.00019
390.62892 -0.00052 0.00039 0.00000 0.00181 -0.00039 0.00020
390.63762 0.00078 0.00000 0.00091 0.00026 0.00013 0.00017
390.64633 0.00142 -0.00129 0.00026 0.00078 0.00026 0.00017
390.65502 -0.00064 0.00077 -0.00052 -0.00039 0.00052 0.00021
390.66373 0.00078 -0.00078 0.00078 0.00052 0.00104 0.00021
390.67243 0.00013 0.00026 0.00103 0.00065 -0.00026 0.00019
390.68113 0.00091 0.00142 0.00091 0.00194 -0.00013 0.00020
390.68983 0.00259 0.00130 -0.00026 0.00117 0.00078 0.00020
390.69853 -0.00013 -0.00013 -0.00026 -0.00013 -0.00091 0.00020
390.70724 0.00195 0.00104 0.00065 0.00156 -0.00013 0.00021
390.71594 -0.00078 -0.00013 -0.00220 -0.00194 -0.00298 0.00018
390.72461 -0.00026 0.00103 -0.00065 0.00078 0.00078 0.00021
390.73331 -0.00065 0.00000 -0.00091 -0.00039 0.00078 0.00018
390.74202 0.00026 0.00167 0.00051 -0.00077 -0.00051 0.00019
390.75072 0.00000 -0.00142 0.00000 -0.00078 -0.00091 0.00020
390.75942 0.00013 -0.00078 -0.00039 -0.00039 -0.00129 0.00020
390.76812 0.00013 -0.00078 0.00039 0.00130 0.00000 0.00018
390.77683 0.00180 0.00013 0.00103 -0.00026 -0.00155 0.00021
390.78553 -0.00143 -0.00026 -0.00065 -0.00052 0.00013 0.00019
390.79423 -0.00026 0.00052 0.00207 -0.00078 -0.00013 0.00021
390.80293 0.00026 -0.00013 -0.00143 -0.00013 0.00052 0.00020
390.81161 0.00065 0.00129 0.00078 0.00091 0.00103 0.00019
390.82031 -0.00091 0.00026 0.00078 0.00026 0.00130 0.00020
390.82900 0.00078 -0.00090 -0.00142 0.00000 0.00078 0.00019
390.83771 -0.00051 0.00064 -0.00039 0.00039 0.00000 0.00019
390.84641 0.00181 0.00078 0.00065 0.00116 0.00116 0.00019
390.85512 -0.00052 -0.00065 0.00013 0.00013 -0.00091 0.00020
390.86381 0.00026 -0.00026 0.00194 0.00155 0.00065 0.00019
390.87249 -0.00181 0.00000 -0.00103 0.00000 -0.00039 0.00021
390.88119 0.00013 -0.00077 -0.00039 -0.00039 -0.00052 0.00021
390.88990 0.00000 0.00168 0.00194 0.00065 0.00026 0.00017
390.89859 -0.00039 -0.00129 -0.00013 -0.00103 -0.00284 0.00020
390.90730 0.00193 -0.00051 0.00039 0.00064 0.00026 0.00019
390.91597 -0.00065 -0.00039 -0.00052 0.00065 0.00026 0.00019
390.92467 -0.00142 -0.00039 -0.00065 0.00090 -0.00026 0.00019
390.93337 0.00013 -0.00311 -0.00078 -0.00194 -0.00129 0.00020
390.94208 0.00309 0.00103 0.00193 0.00219 0.00142 0.00020
390.95078 0.00078 0.00052 0.00039 0.00116 0.00194 0.00020
390.95945 -0.00064 0.00013 -0.00077 -0.00154 -0.00232 0.00020
390.96815 -0.00026 -0.00026 -0.00065 -0.00013 -0.00026 0.00022
390.97685 -0.00013 -0.00065 -0.00155 -0.00013 -0.00129 0.00020
390.98556 0.00052 0.00130 0.00026 0.00182 0.00078 0.00027
390.99422 0.00026 0.00065 0.00235 0.00157 -0.00013 0.00019
391.00293 0.00090 0.00090 0.00090 0.00064 -0.00013 0.00017
391.01163 0.00104 0.00104 0.00065 0.00013 0.00065 0.00020
391.02034 0.00000 0.00130 0.00220 0.00156 -0.00052 0.00022
391.02900 0.00129 0.00000 0.00065 0.00116 -0.00078 0.00021
391.03771 -0.00155 -0.00065 -0.00130 -0.00104 -0.00233 0.00020
391.04641 0.00117 0.00142 0.00104 0.00104 0.00142 0.00018
391.05509 0.00246 0.00091 0.00026 0.00065 0.00104 0.00021
391.06378 0.00026 0.00193 0.00039 0.00051 -0.00039 0.00020
391.07249 0.00103 0.00052 -0.00064 0.00026 -0.00090 0.00020
391.08116 0.00000 -0.00026 0.00168 -0.00065 -0.00052 0.00020
391.08986 -0.00065 -0.00078 0.00052 0.00000 0.00039 0.00021
391.09856 0.00245 0.00168 0.00181 0.00155 0.00129 0.00020
391.10724 -0.00065 -0.00129 -0.00026 -0.00090 -0.00168 0.00020
391.11594 0.00065 0.00013 -0.00052 -0.00078 -0.00143 0.00020
391.12464 0.00156 0.00156 0.00052 -0.00013 0.00065 0.00021
391.13331 0.00130 0.00065 0.00117 0.00000 -0.00026 0.00021
391.14201 0.00026 0.00130 0.00143 -0.00104 0.00130 0.00020
391.15072 0.00091 0.00131 0.00222 0.00091 0.00104 0.00021
391.15938 -0.00026 0.00026 -0.00105 -0.00026 -0.00079 0.00023
391.16809 0.00065 0.00052 0.00052 0.00039 0.00013 0.00022
391.17679 0.00091 -0.00026 0.00000 0.00118 0.00065 0.00020
391.18547 -0.00093 0.00093 0.00053 -0.00026 -0.00225 0.00021
391.19416 -0.00131 -0.00039 -0.00131 -0.00078 -0.00078 0.00021
391.20284 -0.00039 0.00053 0.00171 0.00079 -0.00092 0.00021
391.21154 0.00052 0.00052 -0.00052 -0.00065 0.00000 0.00022
391.22024 0.00118 0.00066 0.00066 0.00367 0.00026 0.00022
391.22891 0.00092 0.00000 -0.00053 -0.00105 -0.00145 0.00022
391.23762 -0.00013 -0.00079 -0.00105 -0.00052 -0.00013 0.00024
391.24629 -0.00040 -0.00066 -0.00105 0.00079 -0.00171 0.00022
391.25499 -0.00053 0.00118 0.00079 -0.00105 -0.00079 0.00022
391.26366 0.00078 -0.00105 -0.00026 0.00026 0.00131 0.00020
391.27237 0.00118 0.00013 -0.00026 -0.00013 0.00026 0.00021
391.28104 0.00091 -0.00039 0.00117 -0.00039 0.00026 0.00022
391.28973 0.00026 0.00091 0.00000 0.00013 0.00013 0.00023
391.29841 0.00091 0.00091 0.00104 -0.00078 0.00065 0.00022
391.30711 0.00183 0.00118 0.00105 0.00039 0.00078 0.00022
391.31581 0.00092 0.00013 -0.00066 -0.00039 -0.00079 0.00021
391.32448 0.00223 0.00039 -0.00079 -0.00118 -0.00105 0.00022
391.33319 -0.00092 -0.00039 -0.00039 0.00013 -0.00026 0.00023
391.34186 -0.00092 -0.00079 0.00144 -0.00039 0.00039 0.00022
391.35056 -0.00066 -0.00013 -0.00132 -0.00053 -0.00119 0.00021
391.35923 -0.00066 0.00158 0.00053 -0.00118 -0.00145 0.00024
391.36791 0.00197 0.00052 0.00144 0.00052 0.00052 0.00022
391.37661 -0.00132 -0.00013 -0.00119 0.00000 -0.00079 0.00021
391.38528 0.00066 0.00000 -0.00053 0.00040 0.00066 0.00025
391.39398 0.00013 0.00132 0.00132 -0.00079 0.00000 0.00029
391.40266 0.00079 0.00039 -0.00039 -0.00105 -0.00223 0.00033
391.41135 0.00184 0.00171 0.00105 0.00053 0.00013 0.00059
391.42003 0.00091 0.00091 0.00052 0.00000 -0.00026 0.00031
391.42873 0.00026 0.00117 -0.00130 0.00052 -0.00104 0.00024
391.43740 0.00222 0.00052 0.00000 0.00131 0.00052 0.00023
391.44607 0.00066 0.00092 -0.00052 -0.00052 -0.00131 0.00023
391.45477 0.00013 0.00052 -0.00013 0.00078 0.00209 0.00024
391.46345 0.00183 0.00078 0.00157 0.00118 0.00157 0.00024
391.47214 -0.00078 -0.00052 0.00013 0.00026 -0.00170 0.00022
391.48082 0.00026 0.00065 0.00130 -0.00078 -0.00026 0.00027
391.48949 0.00013 -0.00065 0.00065 0.00013 -0.00013 0.00022
391.49820 0.00274 0.00144 0.00261 0.00052 0.00052 0.00024
391.50686 0.00013 -0.00052 0.00039 0.00078 0.00026 0.00023
391.51557 0.00052 0.00131 -0.00144 -0.00105 0.00013 0.00025
391.52424 -0.00013 -0.00248 -0.00183 -0.00078 -0.00143 0.00023
391.53291 -0.00091 -0.00169 0.00091 -0.00078 -0.00026 0.00023
391.54161 0.00053 -0.00026 0.00053 0.00092 -0.00053 0.00023
391.55029 0.00156 0.00130 0.00039 0.00221 0.00208 0.00022
391.55896 0.00208 0.00078 0.00117 0.00091 0.00104 0.00024
391.56766 -0.00039 -0.00234 -0.00169 -0.00052 -0.00169 0.00021
391.57633 0.00105 0.00288 0.00131 0.00262 0.00196 0.00023
391.58501 0.00144 -0.00026 0.00105 0.00105 -0.00013 0.00023
391.59371 0.00091 0.00000 0.00104 0.00117 0.00104 0.00022
391.60237 0.00299 0.00104 0.00221 0.00195 0.00221 0.00024
391.61105 0.00052 0.00065 -0.00105 0.00209 0.00065 0.00023
391.61975 0.00013 -0.00026 -0.00026 -0.00169 0.00091 0.00025
391.62842 0.00013 -0.00078 0.00000 -0.00013 -0.00065 0.00023
391.63709 0.00066 0.00158 -0.00039 -0.00066 -0.00066 0.00023
391.64577 0.00118 -0.00013 0.00066 -0.00026 0.00105 0.00024
391.65447 0.00105 -0.00013 -0.00078 0.00000 -0.00013 0.00021
391.66314 -0.00092 -0.00026 -0.00118 -0.00052 0.00013 0.00024
391.67181 -0.00169 -0.00261 -0.00065 -0.00169 -0.00235 0.00025
391.68052 0.00013 0.00118 0.00144 0.00144 -0.00013 0.00022
391.68918 0.00169 0.00182 0.00052 0.00000 -0.00052 0.00023
391.69786 0.00052 0.00104 0.00104 0.00026 0.00130 0.00023
391.70653 0.00026 -0.00091 -0.00026 -0.00143 -0.00078 0.00023
391.71520 -0.00052 -0.00013 0.00000 0.00078 0.00117 0.00024
391.72390 0.00091 0.00156 0.00026 0.00143 0.00117 0.00024
391.73258 0.00092 0.00183 0.00013 -0.00052 -0.00144 0.00024
391.74125 0.00118 0.00236 0.00131 0.00039 0.00066 0.00022
391.74991 -0.00026 -0.00169 -0.00104 -0.00078 -0.00065 0.00024
391.75862 0.00157 0.00026 0.00079 0.00000 0.00210 0.00023
391.76729 0.00209 0.00196 0.00183 0.00170 0.00105 0.00023
391.77596 -0.00053 0.00131 0.00131 0.00118 0.00118 0.00025
391.78463 0.00052 0.00026 0.00013 0.00105 0.00039 0.00025
391.79331 -0.00078 -0.00052 0.00105 -0.00183 -0.00039 0.00025
391.80198 -0.00157 -0.00315 -0.00223 -0.00013 -0.00079 0.00026
391.81068 0.00013 0.00013 -0.00170 0.00039 -0.00144 0.00025
391.81935 0.00209 0.00326 0.00261 0.00365 0.00052 0.00023
391.82803 0.00013 -0.00170 0.00130 -0.00104 -0.00052 0.00026
391.83669 0.00091 0.00052 0.00065 0.00013 -0.00157 0.00025
391.84537 0.00078 -0.00130 0.00052 -0.00078 0.00039 0.00024
391.85404 -0.00052 -0.00052 0.00039 -0.00078 0.00065 0.00024
391.86272 0.00116 0.00064 -0.00077 0.00026 0.00039 0.00026
391.87141 0.00258 0.00168 0.00194 0.00129 0.00194 0.00024
391.88009 0.00103 0.00000 0.00090 -0.00026 0.00026 0.00024
391.88876 0.00154 0.00051 0.00116 0.00154 0.00116 0.00024
391.89743 -0.00013 0.00220 0.00091 0.00194 0.00013 0.00024
391.90610 0.00013 -0.00091 -0.00078 -0.00091 -0.00155 0.00023
391.91477 -0.00129 0.00077 0.00168 0.00000 0.00026 0.00025
391.92344 -0.00026 0.00000 -0.00104 0.00026 -0.00078 0.00023
391.93211 0.00026 -0.00065 -0.00065 0.00116 -0.00181 0.00025
391.94079 -0.00052 -0.00026 -0.00168 -0.00090 -0.00116 0.00025
391.94946 0.00052 0.00026 0.00116 0.00000 0.00129 0.00027
391.95813 0.00103 -0.00052 -0.00052 -0.00103 0.00000 0.00024
391.96680 0.00039 0.00039 0.00052 -0.00104 0.00000 0.00024
391.97548 -0.00026 -0.00013 0.00026 -0.00039 0.00000 0.00025
391.98414 0.00026 0.00117 0.00182 0.00143 0.00143 0.00026
391.99282 -0.00013 0.00026 0.00129 -0.00078 -0.00091 0.00024
392.00152 0.00155 0.00116 0.00026 0.00116 0.00116 0.00026
392.01020 0.00090 0.00231 0.00115 0.00141 0.00295 0.00025
392.01886 0.00154 0.00090 0.00167 0.00064 -0.00064 0.00027
392.02754 -0.00129 -0.00103 0.00167 -0.00052 -0.00039 0.00024
392.03621 0.00091 -0.00026 -0.00013 -0.00039 0.00026 0.00026
392.04488 -0.00051 0.00077 0.00064 -0.00231 -0.00077 0.00026
392.05355 0.00116 0.00129 0.00077 0.00154 0.00206 0.00027
392.06219 -0.00026 -0.00064 0.00077 -0.00141 0.00013 0.00025
392.07086 0.00013 0.00102 -0.00038 -0.00051 0.00038 0.00026
392.07953 0.00140 0.00013 0.00102 -0.00013 0.00025 0.00024
392.08821 0.00089 0.00089 0.00153 0.00089 -0.00153 0.00025
392.09687 -0.00153 -0.00140 -0.00128 -0.00370 -0.00192 0.00024
392.10555 -0.00013 0.00038 0.00013 0.00141 -0.00064 0.00027
392.11422 0.00000 -0.00064 -0.00038 0.00013 -0.00127 0.00026
392.12290 -0.00076 -0.00114 -0.00076 -0.00076 0.00038 0.00025
392.13156 -0.00064 0.00038 0.00038 0.00000 -0.00205 0.00025
392.14024 0.00076 0.00076 -0.00013 0.00038 -0.00038 0.00027
392.14891 0.00076 -0.00051 0.00127 0.00064 0.00127 0.00025
392.15758 0.00154 0.00090 0.00179 0.00154 0.00154 0.00026
392.16625 -0.00167 -0.00179 -0.00218 -0.00218 -0.00141 0.00027
392.17493 -0.00115 -0.00064 0.00026 -0.00103 0.00051 0.00025
392.18359 0.00218 0.00013 0.00064 0.00077 -0.00090 0.00027
392.19224 0.00064 0.00116 0.00077 -0.00142 0.00039 0.00025
392.20091 0.00219 0.00026 -0.00090 0.00181 -0.00013 0.00027
392.20957 0.00026 0.00065 0.00013 0.00026 -0.00168 0.00027
392.21825 -0.00039 0.00013 0.00064 0.00013 -0.00039 0.00026
392.22692 0.00026 0.00167 0.00142 0.00142 0.00090 0.00026
392.23560 0.00065 -0.00013 -0.00039 0.00052 0.00039 0.00028
392.24426 -0.00155 -0.00077 -0.00116 -0.00039 -0.00090 0.00027
392.25291 0.00026 -0.00116 0.00064 -0.00064 -0.00180 0.00029
392.26158 0.00167 0.00013 -0.00026 -0.00026 -0.00039 0.00028
392.27025 0.00000 0.00077 -0.00038 -0.00026 0.00013 0.00027
392.27892 -0.00115 -0.00026 -0.00089 0.00089 -0.00026 0.00030
392.28760 0.00026 0.00064 0.00051 -0.00038 -0.00013 0.00032
392.29626 0.00051 0.00102 0.00166 0.00192 0.00026 0.00026
392.30491 0.00064 0.00026 -0.00013 -0.00166 -0.00051 0.00028
392.31358 0.00229 0.00025 0.00025 0.00064 0.00051 0.00028
392.32225 0.00090 0.00115 0.00154 -0.00038 0.00103 0.00028
392.33092 -0.00077 0.00039 0.00039 -0.00064 -0.00168 0.00028
392.33960 0.00089 0.00077 0.00153 -0.00026 0.00115 0.00029
392.34824 0.00038 0.00000 -0.00038 -0.00038 0.00000 0.00027
392.35691 -0.00026 0.00103 0.00013 -0.00039 0.00026 0.00030
392.36558 0.00091 -0.00039 0.00039 0.00065 -0.00039 0.00026
392.37425 0.00064 0.00026 0.00039 0.00052 -0.00052 0.00029
392.38289 0.00142 0.00180 0.00090 0.00077 0.00064 0.00029
392.39156 -0.00026 -0.00039 -0.00013 -0.00051 -0.00205 0.00028
392.40024 0.00000 0.00000 0.00052 0.00090 0.00116 0.00030
392.40890 0.00193 0.00103 0.00180 -0.00013 -0.00051 0.00028
392.41755 -0.00103 -0.00103 -0.00064 -0.00064 0.00026 0.00031
392.42622 0.00141 -0.00051 0.00116 -0.00039 -0.00013 0.00029
392.43489 -0.00180 -0.00154 -0.00142 -0.00077 -0.00206 0.00029
392.44353 0.00128 0.00039 0.00128 -0.00116 0.00000 0.00027
392.45221 0.00103 0.00026 -0.00026 0.00013 0.00013 0.00031
392.46087 -0.00077 0.00000 0.00051 -0.00090 0.00013 0.00029
392.46952 0.00179 0.00013 0.00038 0.00102 0.00038 0.00029
392.47819 -0.00166 -0.00217 -0.00013 -0.00243 -0.00192 0.00031
392.48687 0.00204 0.00153 0.00166 0.00102 0.00179 0.00027
392.49550 -0.00193 -0.00026 0.00013 -0.00013 -0.00180 0.00030
392.50418 -0.00064 0.00013 -0.00013 0.00052 -0.00090 0.00028
392.51285 0.00218 0.00269 0.00179 0.00154 0.00179 0.00030
392.52148 0.00103 0.00103 0.00013 -0.00142 0.00091 0.00028
392.53016 0.00000 0.00168 0.00026 0.00116 0.00206 0.00032
392.53883 0.00064 -0.00064 0.00013 0.00051 0.00051 0.00027
392.54747 0.00090 0.00141 0.00154 0.00128 -0.00064 0.00030
392.55614 -0.00026 0.00026 0.00064 -0.00064 -0.00064 0.00031
392.56482 0.00143 0.00181 0.00078 -0.00065 -0.00039 0.00031
392.57345 -0.00129 0.00039 0.00116 -0.00103 -0.00064 0.00029
392.58213 0.00013 0.00000 0.00064 0.00166 0.00064 0.00029
392.59077 0.00051 0.00103 0.00154 0.00000 -0.00026 0.00032
392.59944 0.00128 0.00141 -0.00051 0.00115 -0.00013 0.00030
392.60811 -0.00216 -0.00152 -0.00140 -0.00038 -0.00038 0.00030
392.61676 0.00243 0.00000 0.00090 0.00038 -0.00077 0.00031
392.62542 -0.00026 0.00180 0.00077 0.00141 0.00064 0.00029
392.63407 0.00309 0.00051 0.00000 0.00077 0.00141 0.00030
392.64274 -0.00064 0.00064 -0.00051 0.00051 -0.00038 0.00031
392.65138 0.00013 0.00038 -0.00013 0.00051 -0.00026 0.00030
392.66005 0.00115 0.00000 0.00140 0.00115 0.00000 0.00031
392.66870 -0.00102 -0.00102 -0.00178 -0.00216 -0.00089 0.00029
392.67736 0.00102 -0.00051 -0.00076 0.00000 -0.00216 0.00029
392.68603 -0.00013 0.00101 -0.00076 -0.00025 -0.00177 0.00032
392.69468 0.00026 0.00000 -0.00026 0.00013 0.00064 0.00032
392.70334 0.00114 0.00051 -0.00013 0.00114 0.00089 0.00029
392.71199 0.00127 0.00038 0.00076 -0.00013 0.00063 0.00032
392.72066 -0.00114 0.00013 0.00038 -0.00089 -0.00216 0.00030
392.72930 -0.00038 -0.00203 0.00038 -0.00089 -0.00064 0.00032
392.73797 -0.00241 -0.00140 -0.00318 -0.00241 -0.00254 0.00032
392.74662 -0.00127 0.00025 -0.00127 -0.00051 -0.00102 0.00031
392.75529 -0.00115 -0.00217 -0.00166 -0.00051 -0.00115 0.00033
392.76393 0.00064 0.00051 0.00064 -0.00026 0.00077 0.00034
392.77257 0.00076 0.00153 -0.00025 -0.00025 -0.00102 0.00031
392.78125 -0.00051 -0.00077 -0.00090 0.00051 0.00115 0.00032
392.78988 0.00220 0.00103 0.00142 0.00039 0.00116 0.00033
392.79856 0.00052 -0.00077 0.00052 -0.00142 0.00116 0.00030
392.80719 0.00103 0.00026 -0.00013 -0.00038 0.00026 0.00033
392.81587 -0.00231 -0.00103 -0.00051 -0.00128 -0.00256 0.00030
392.82451 0.00077 -0.00090 -0.00102 -0.00115 -0.00102 0.00032
392.83318 0.00076 0.00127 0.00127 -0.00025 0.00127 0.00033
392.84182 0.00051 -0.00051 -0.00051 0.00051 0.00051 0.00032
392.85046 0.00089 0.00089 0.00165 0.00038 0.00000 0.00032
392.85914 0.00166 0.00243 0.00192 0.00153 0.00089 0.00032
392.86777 -0.00165 -0.00215 -0.00114 -0.00101 -0.00089 0.00034
392.87645 0.00089 0.00076 -0.00038 0.00064 -0.00076 0.00032
392.88509 0.00166 0.00115 0.00179 0.00230 0.00128 0.00036
392.89373 0.00115 -0.00077 0.00038 -0.00077 -0.00051 0.00033
392.90240 0.00089 0.00089 0.00102 0.00127 0.00000 0.00031
392.91105 -0.00242 -0.00115 -0.00115 0.00025 -0.00191 0.00034
392.91968 -0.00051 0.00013 -0.00064 0.00102 -0.00089 0.00033
392.92836 0.00051 0.00077 0.00000 -0.00013 0.00038 0.00032
392.93700 0.00204 0.00038 0.00216 0.00127 0.00025 0.00033
392.94564 0.00077 0.00051 -0.00128 -0.00026 -0.00115 0.00034
392.95431 0.00129 0.00013 0.00193 0.00090 0.00051 0.00031
392.96296 0.00154 0.00000 0.00116 0.00000 0.00077 0.00035
392.97159 0.00077 0.00077 0.00026 -0.00039 0.00000 0.00034
392.98026 0.00026 -0.00026 -0.00116 -0.00090 -0.00064 0.00034
392.98891 0.00245 0.00258 0.00052 0.00181 0.00090 0.00032
392.99754 -0.00026 -0.00013 0.00090 -0.00052 -0.00207 0.00034
393.00622 0.00142 0.00000 0.00090 0.00065 -0.00065 0.00031
393.01486 0.00013 0.00090 0.00193 -0.00026 0.00180 0.00033
393.02350 -0.00026 -0.00104 -0.00299 0.00000 -0.00065 0.00035
393.03217 -0.00013 0.00104 0.00116 0.00026 0.00039 0.00036
393.04081 0.00116 -0.00077 -0.00013 -0.00207 0.00000 0.00035
393.04945 0.00000 0.00129 -0.00116 -0.00026 -0.00052 0.00036
393.05810 0.00117 0.00000 -0.00026 0.00065 0.00078 0.00037
393.06676 0.00026 -0.00090 -0.00013 -0.00077 -0.00039 0.00036
393.07541 0.00244 0.00244 0.00090 0.00244 0.00039 0.00037
393.08405 0.00116 0.00103 0.00051 0.00026 0.00000 0.00036
393.09269 -0.00181 -0.00090 -0.00026 -0.00168 -0.00194 0.00037
393.10133 -0.00013 -0.00026 -0.00064 0.00026 -0.00026 0.00038
393.11001 -0.00090 -0.00129 -0.00116 -0.00116 -0.00065 0.00037
393.11864 0.00078 -0.00104 0.00026 -0.00052 -0.00117 0.00037
393.12729 -0.00039 0.00013 0.00078 0.00026 -0.00078 0.00036
393.13593 0.00077 0.00064 -0.00142 0.00052 -0.00077 0.00037
393.14459 0.00129 0.00142 0.00026 0.00077 0.00013 0.00037
393.15324 0.00039 0.00052 -0.00104 0.00039 0.00026 0.00035
393.16188 -0.00091 0.00000 -0.00013 0.00091 0.00065 0.00038
393.17052 0.00128 0.00128 -0.00051 -0.00026 0.00103 0.00037
393.17916 0.00090 0.00077 0.00064 0.00180 0.00039 0.00039
393.18781 -0.00013 -0.00064 -0.00051 0.00179 0.00000 0.00040
393.19647 -0.00013 0.00064 -0.00013 0.00026 0.00103 0.00039
393.20512 -0.00026 -0.00013 0.00026 -0.00013 -0.00206 0.00037
393.21376 0.00052 -0.00129 0.00129 0.00065 -0.00077 0.00039
393.22240 -0.00026 0.00039 -0.00026 -0.00090 -0.00026 0.00038
393.23104 0.00181 0.00026 -0.00026 -0.00013 -0.00077 0.00039
393.23969 -0.00077 -0.00103 0.00026 -0.00026 -0.00064 0.00042
393.24832 0.00026 -0.00090 -0.00103 0.00039 -0.00052 0.00038
393.25697 0.00052 -0.00052 0.00026 -0.00013 0.00013 0.00039
393.26564 -0.00051 0.00103 0.00116 0.00129 0.00026 0.00039
393.27428 0.00103 0.00052 0.00155 0.00026 -0.00026 0.00038
393.28292 0.00181 -0.00078 0.00000 0.00129 0.00039 0.00042
393.29156 -0.00039 0.00013 0.00000 -0.00078 0.00129 0.00039
393.30020 0.00232 0.00193 0.00090 0.00154 0.00116 0.00040
393.30884 0.00000 0.00103 -0.00039 -0.00116 -0.00013 0.00039
393.31748 0.00039 -0.00052 -0.00026 -0.00013 -0.00142 0.00041
393.32612 0.00155 0.00064 0.00026 0.00155 0.00026 0.00041
393.33477 0.00103 -0.00039 0.00103 -0.00065 0.00077 0.00041
393.34340 -0.00051 -0.00180 -0.00039 -0.00206 -0.00193 0.00041
393.35205 0.00090 0.00026 0.00039 -0.00232 -0.00064 0.00042
393.36069 -0.00039 -0.00013 -0.00039 -0.00039 -0.00090 0.00041
393.36933 -0.00039 -0.00077 -0.00077 0.00000 -0.00141 0.00042
393.37797 0.00192 0.00269 0.00192 0.00205 0.00128 0.00040
393.38662 0.00116 0.00154 0.00064 0.00000 0.00141 0.00043
393.39525 -0.00090 0.00077 0.00039 -0.00090 -0.00026 0.00043
393.40390 -0.00051 -0.00090 -0.00077 -0.00141 -0.00013 0.00042
393.41254 0.00154 0.00193 0.00193 0.00167 0.00103 0.00043
393.42118 -0.00051 0.00129 -0.00090 -0.00116 0.00013 0.00042
393.42982 0.00115 -0.00102 0.00102 -0.00064 0.00128 0.00041
393.43847 -0.00064 -0.00154 0.00013 -0.00038 0.00000 0.00043
393.44710 0.00064 -0.00064 -0.00013 0.00077 0.00064 0.00043
393.45574 0.00180 0.00270 0.00064 0.00077 0.00231 0.00043
393.46438 0.00089 0.00077 0.00307 0.00128 -0.00026 0.00042
393.47302 0.00254 0.00153 0.00089 0.00229 0.00076 0.00044
393.48167 0.00128 0.00090 0.00026 -0.00180 -0.00103 0.00046
393.49030 0.00102 0.00076 0.00166 0.00191 0.00000 0.00043
393.49895 0.00102 0.00217 -0.00089 0.00102 0.00051 0.00045
393.50759 0.00141 0.00141 -0.00013 0.00026 0.00000 0.00043
393.51623 0.00437 0.00193 0.00026 0.00244 0.00077 0.00044
393.52487 0.00128 0.00140 0.00140 0.00192 0.00102 0.00060
393.53352 0.00103 0.00077 0.00000 0.00128 -0.00013 0.00046
393.54215 0.00115 0.00026 -0.00051 0.00204 -0.00026 0.00045
393.55077 -0.00013 -0.00038 -0.00102 0.00051 -0.00090 0.00047
393.55941 0.00026 0.00064 0.00204 0.00038 0.00000 0.00047
393.56805 -0.00051 -0.00064 0.00077 -0.00064 -0.00064 0.00044
393.57669 -0.00013 0.00115 0.00167 0.00051 0.00051 0.00046
393.58533 -0.00194 -0.00026 -0.00245 -0.00142 -0.00207 0.00046
393.59397 0.00103 0.00077 0.00090 0.00154 0.00064 0.00050
393.60261 0.00051 -0.00090 -0.00026 0.00038 0.00000 0.00045
393.61125 -0.00051 0.00077 -0.00064 0.00141 -0.00026 0.00046
393.61986 0.00230 0.00192 0.00230 0.00090 0.00243 0.00046
393.62851 0.00140 0.00115 0.00026 0.00166 0.00115 0.00049
393.63714 0.00190 0.00164 0.00202 0.00101 0.00063 0.00048
393.64579 0.00013 -0.00140 -0.00077 -0.00204 -0.00128 0.00048
393.65443 -0.00076 0.00089 0.00025 -0.00025 -0.00013 0.00048
393.66307 0.00063 0.00102 0.00000 0.00114 0.00000 0.00048
393.67168 0.00038 -0.00038 0.00025 0.00152 0.00101 0.00050
393.68033 0.00051 0.00025 0.00063 0.00051 0.00216 0.00050
393.68896 0.00166 0.00166 0.00051 0.00166 0.00102 0.00048
393.69761 0.00177 0.00152 0.00063 0.00076 0.00076 0.00050
393.70624 0.00013 -0.00038 -0.00051 -0.00013 0.00000 0.00051
393.71486 -0.00114 -0.00127 -0.00038 -0.00140 -0.00025 0.00051
393.72350 0.00243 0.00115 0.00333 0.00230 0.00013 0.00051
393.73214 0.00178 0.00076 0.00102 0.00242 0.00076 0.00051
393.74078 0.00217 0.00038 0.00140 0.00025 0.00051 0.00051
393.74940 -0.00064 0.00013 0.00153 0.00026 -0.00013 0.00053
393.75803 0.00165 0.00076 0.00317 0.00279 0.00114 0.00053
393.76667 0.00088 0.00025 0.00000 0.00114 -0.00063 0.00054
393.77532 -0.00101 -0.00164 -0.00151 -0.00164 -0.00126 0.00055
393.78392 -0.00013 -0.00089 0.00038 -0.00127 -0.00114 0.00055
393.79257 0.00191 0.00051 0.00013 0.00064 0.00013 0.00055
393.80120 -0.00025 0.00051 -0.00152 -0.00025 0.00000 0.00053
393.80982 -0.00089 -0.00025 -0.00190 -0.00076 0.00000 0.00054
393.81846 0.00076 0.00177 0.00190 0.00152 0.00139 0.00053
393.82710 0.00038 0.00101 0.00127 0.00177 0.00139 0.00057
393.83571 -0.00025 0.00076 0.00025 0.00088 -0.00139 0.00055
393.84436 0.00265 0.00164 0.00177 0.00215 0.00215 0.00055
393.85299 0.00114 0.00064 0.00076 0.00229 0.00216 0.00056
393.86164 0.00051 0.00076 0.00152 0.00228 0.00063 0.00055
393.87024 0.00051 0.00076 0.00139 0.00025 0.00177 0.00054
393.87889 0.00204 0.00178 0.00051 0.00102 0.00115 0.00056
393.88750 0.00216 0.00153 0.00000 0.00178 -0.00038 0.00057
393.89614 0.00101 0.00076 0.00038 0.00088 0.00151 0.00056
393.90478 -0.00051 0.00076 0.00038 0.00013 -0.00038 0.00058
393.91339 -0.00114 -0.00063 -0.00114 -0.00177 0.00114 0.00058
393.92203 0.00076 -0.00139 -0.00215 -0.00025 -0.00063 0.00058
393.93067 0.00076 -0.00025 -0.00063 -0.00013 -0.00051 0.00058
393.93928 -0.00114 -0.00038 -0.00063 -0.00114 0.00013 0.00060
393.94792 0.00165 0.00191 0.00165 0.00127 0.00051 0.00060
393.95654 0.00076 0.00064 0.00102 0.00038 0.00038 0.00063
393.96517 0.00088 0.00340 0.00240 0.00176 0.00151 0.00059
393.97382 -0.00228 -0.00063 0.00025 -0.00152 0.00013 0.00061
393.98243 0.00305 0.00114 0.00267 0.00076 0.00292 0.00062
393.99107 0.00089 0.00064 0.00242 0.00102 0.00038 0.00061
393.99968 -0.00051 -0.00102 -0.00064 0.00013 -0.00064 0.00062
394.00832 0.00140 -0.00025 0.00102 0.00051 0.00038 0.00064
394.01693 0.00203 0.00025 0.00076 -0.00153 -0.00064 0.00065
394.02558 0.00000 0.00025 0.00101 0.00190 0.00203 0.00064
394.03418 0.00050 0.00013 0.00025 0.00164 -0.00025 0.00062
394.04283 0.00076 0.00063 -0.00038 -0.00050 -0.00139 0.00064
394.05147 -0.00101 -0.00114 0.00051 -0.00076 -0.00164 0.00065
394.06008 0.00278 0.00139 0.00303 0.00139 0.00101 0.00065
394.06872 0.00114 0.00076 0.00126 0.00126 -0.00114 0.00067
394.07732 -0.00051 0.00064 -0.00089 -0.00165 -0.00140 0.00068
394.08597 0.00114 0.00127 0.00064 0.00203 0.00102 0.00067
394.09458 0.00013 -0.00026 -0.00115 0.00038 0.00026 0.00066
394.10322 -0.00101 -0.00063 -0.00215 -0.00190 -0.00089 0.00066
394.11183 0.00089 0.00013 -0.00013 -0.00204 -0.00141 0.00070
394.12048 0.00038 -0.00090 -0.00013 0.00064 -0.00064 0.00068
394.12908 0.00154 0.00192 0.00231 0.00256 0.00154 0.00070
394.13770 0.00076 0.00140 0.00051 0.00114 0.00025 0.00070
394.14633 0.00128 0.00102 0.00077 0.00051 -0.00064 0.00071
394.15495 0.00166 0.00051 0.00205 0.00179 0.00269 0.00069
394.16359 -0.00051 -0.00051 0.00051 0.00076 -0.00140 0.00069
394.17220 0.00230 0.00102 0.00217 0.00166 0.00141 0.00071
394.18084 0.00025 0.00153 0.00153 0.00217 0.00102 0.00071
394.18946 0.00103 0.00064 -0.00090 0.00051 0.00103 0.00072
394.19809 -0.00038 -0.00051 0.00000 -0.00191 -0.00013 0.00072
394.20671 0.00076 0.00089 0.00126 0.00114 0.00228 0.00071
394.21531 0.00126 0.00088 0.00013 0.00076 0.00013 0.00073
394.22395 -0.00126 0.00025 0.00013 -0.00126 0.00076 0.00071
394.23257 0.00126 0.00013 0.00139 0.00000 -0.00038 0.00072
394.24120 0.00075 0.00113 0.00214 0.00126 0.00101 0.00074
394.24982 -0.00051 -0.00076 0.00229 0.00114 -0.00140 0.00076
394.25842 -0.00063 -0.00127 0.00000 -0.00089 -0.00063 0.00076
394.26707 0.00025 0.00089 -0.00013 0.00114 -0.00025 0.00076
394.27568 -0.00076 0.00051 -0.00038 0.00114 -0.00063 0.00079
394.28429 0.00038 -0.00038 0.00102 0.00038 0.00152 0.00078
394.29293 0.00101 0.00278 0.00202 0.00126 0.00038 0.00077
394.30155 0.00227 0.00253 0.00063 0.00328 0.00189 0.00080
394.31015 0.00101 0.00279 0.00089 0.00127 -0.00089 0.00081
394.31880 -0.00114 0.00013 -0.00140 -0.00051 -0.00127 0.00081
394.32740 -0.00126 0.00025 0.00101 0.00038 0.00076 0.00081
394.33602 0.00215 -0.00013 0.00265 0.00051 0.00227 0.00078
394.34466 0.00013 0.00063 0.00113 -0.00088 0.00013 0.00081
394.35327 0.00063 0.00101 0.00076 0.00190 -0.00051 0.00083
394.36188 -0.00201 -0.00050 0.00063 -0.00050 -0.00025 0.00082
394.37052 0.00013 0.00025 0.00088 0.00189 -0.00076 0.00082
394.37913 0.00190 0.00076 0.00114 0.00127 0.00101 0.00083
394.38774 0.00063 0.00127 0.00152 0.00038 0.00089 0.00085
394.39635 0.00038 -0.00025 -0.00038 0.00000 0.00101 0.00084
394.40499 0.00264 0.00088 0.00063 0.00000 0.00013 0.00086
394.41360 0.00050 0.00113 0.00150 0.00163 0.00100 0.00086
394.42221 0.00087 -0.00050 0.00100 0.00000 0.00125 0.00086
394.43083 0.00037 0.00012 0.00012 0.00099 -0.00124 0.00088
394.43946 -0.00037 -0.00075 -0.00075 -0.00124 0.00112 0.00087
394.44808 0.00187 0.00237 0.00224 0.00062 0.00087 0.00088
394.45669 0.00100 0.00012 0.00062 0.00062 0.00212 0.00088
394.46530 0.00286 0.00124 0.00224 0.00112 0.00137 0.00092
394.47394 0.00311 0.00212 0.00050 0.00112 0.00187 0.00090
394.48255 0.00174 0.00012 -0.00037 -0.00075 0.00087 0.00094
394.49116 0.00224 0.00012 0.00087 0.00162 0.00125 0.00093
394.49978 0.00000 -0.00050 0.00112 -0.00112 0.00025 0.00094
394.50838 0.00200 0.00138 0.00250 0.00300 0.00138 0.00091
394.51700 -0.00050 -0.00050 -0.00075 -0.00138 -0.00063 0.00024
394.52563 0.00163 -0.00050 0.00214 -0.00025 0.00063 0.00101
394.53424 0.00125 -0.00025 -0.00050 0.00088 -0.00050 0.00098
394.54286 -0.00013 0.00165 0.00038 0.00000 0.00177 0.00101
394.55146 0.00101 0.00126 -0.00063 0.00316 0.00126 0.00102
394.56008 0.00050 0.00164 0.00088 0.00013 0.00076 0.00100
394.56868 0.00138 0.00126 0.00025 -0.00013 0.00138 0.00104
394.57733 0.00213 0.00288 0.00113 0.00288 0.00201 0.00102
394.58594 0.00075 0.00163 0.00100 0.00263 0.00138 0.00105
394.59455 0.00151 0.00239 0.00163 0.00063 0.00050 0.00102
394.60316 -0.00025 0.00063 0.00138 0.00238 -0.00025 0.00106
394.61177 -0.00138 0.00013 0.00063 0.00013 0.00063 0.00107
394.62038 0.00038 0.00075 -0.00025 -0.00050 0.00188 0.00107
394.62900 0.00112 0.00162 0.00174 0.00162 0.00012 0.00108
394.63760 -0.00025 0.00150 0.00125 0.00050 -0.00075 0.00108
394.64622 -0.00012 0.00037 0.00274 0.00075 -0.00012 0.00111
394.65482 -0.00137 -0.00162 -0.00174 -0.00112 -0.00050 0.00112
394.66347 0.00100 0.00088 0.00163 0.00025 0.00163 0.00114
394.67208 0.00075 0.00236 0.00099 0.00112 -0.00037 0.00114
394.68069 0.00150 0.00063 0.00238 0.00138 0.00075 0.00114
394.68930 -0.00038 0.00088 0.00113 -0.00013 0.00013 0.00119
394.69790 0.00137 -0.00012 0.00012 0.00100 0.00000 0.00120
394.70652 -0.00050 0.00050 -0.00113 0.00000 -0.00075 0.00120
394.71513 0.00038 -0.00025 -0.00025 0.00100 -0.00025 0.00124
394.72374 0.00075 0.00138 0.00038 0.00013 0.00013 0.00125
394.73235 0.00212 0.00187 0.00225 0.00212 0.00112 0.00125
394.74096 0.00236 0.00286 0.00199 0.00224 0.00224 0.00124
394.74957 0.00050 0.00150 0.00113 0.00088 0.00125 0.00129
394.75819 0.00237 0.00162 0.00262 0.00225 0.00162 0.00129
394.76679 0.00025 -0.00087 0.00000 0.00050 -0.00100 0.00131
394.77541 0.00249 0.00199 0.00124 0.00099 0.00286 0.00131
394.78401 0.00113 -0.00075 0.00075 -0.00013 0.00088 0.00129
394.79263 0.00339 0.00226 0.00289 0.00276 0.00201 0.00135
394.80124 0.00149 0.00050 0.00025 0.00199 0.00112 0.00134
394.80985 0.00125 0.00288 0.00263 0.00113 0.00275 0.00138
394.81846 0.00250 0.00162 0.00337 0.00275 0.00000 0.00137
394.82707 0.00000 0.00224 0.00112 0.00062 0.00174 0.00139
394.83568 0.00112 0.00187 0.00199 0.00150 0.00150 0.00139
394.84430 0.00249 0.00361 0.00286 0.00336 0.00261 0.00143
394.85290 0.00213 0.00088 0.00088 0.00251 0.00013 0.00142
394.86148 0.00037 0.00137 0.00000 0.00000 0.00037 0.00145
394.87009 0.00113 0.00275 0.00013 0.00075 0.00125 0.00145
394.87870 0.00299 0.00312 0.00274 0.00225 0.00274 0.00146
394.88731 -0.00050 0.00075 0.00050 0.00062 -0.00100 0.00149
394.89592 0.00125 0.00012 0.00100 0.00012 0.00087 0.00150
394.90454 0.00012 0.00087 0.00237 0.00100 0.00125 0.00150
394.91314 0.00275 0.00325 0.00075 0.00150 0.00050 0.00157
394.92176 0.00150 0.00213 0.00188 0.00200 0.00063 0.00155
394.93036 0.00037 0.00212 0.00336 0.00249 0.00100 0.00157
394.93895 0.00050 0.00062 0.00236 0.00075 0.00137 0.00159
394.94756 0.00124 0.00286 0.00261 0.00087 0.00261 0.00159
394.95617 0.00075 0.00125 0.00125 0.00025 0.00012 0.00159
394.96478 0.00074 0.00149 0.00124 0.00074 0.00099 0.00161
394.97339 0.00374 0.00199 0.00262 0.00249 0.00212 0.00164
394.98200 0.00338 0.00275 0.00288 0.00200 0.00213 0.00166
394.99062 0.00186 0.00347 0.00310 0.00261 0.00211 0.00165
394.99919 0.00286 0.00162 0.00261 0.00211 0.00224 0.00171
395.00780 0.00235 0.00235 0.00248 0.00062 0.00037 0.00169
395.01641 0.00198 0.00272 0.00087 0.00049 0.00173 0.00171
395.02502 0.00211 0.00198 0.00310 0.00322 0.00174 0.00176
395.03363 0.00049 0.00111 0.00160 0.00025 0.00123 0.00173
395.04221 0.00482 0.00309 0.00457 0.00321 0.00433 0.00179
395.05083 0.00261 0.00298 0.00298 0.00186 0.00311 0.00181
395.05943 0.00161 0.00148 0.00136 0.00136 0.00087 0.00180
395.06805 0.00296 0.00123 0.00308 0.00259 0.00358 0.00182
395.07662 0.00235 0.00334 0.00198 0.00321 0.00420 0.00184
395.08524 0.00333 0.00370 0.00136 0.00457 0.00197 0.00185
395.09385 0.00087 0.00062 0.00099 -0.00050 0.00025 0.00187
395.10246 0.00148 0.00320 0.00344 0.00234 0.00320 0.00186
395.11104 0.00136 0.00136 0.00074 0.00124 0.00087 0.00194
395.11965 0.00297 0.00247 0.00223 0.00272 0.00223 0.00194
395.12826 0.00310 0.00496 0.00446 0.00359 0.00372 0.00197
395.13687 0.00187 0.00311 0.00075 0.00224 0.00050 0.00199
395.14545 0.00125 0.00225 0.00150 0.00062 0.00262 0.00206
395.15407 0.00236 0.00310 0.00335 0.00347 0.00347 0.00202
395.16267 0.00037 0.00186 0.00136 0.00136 0.00149 0.00205
395.17125 0.00222 0.00259 0.00197 0.00222 0.00246 0.00205
395.17986 0.00271 0.00160 0.00197 0.00221 0.00197 0.00207
395.18847 0.00025 0.00099 0.00148 0.00124 0.00161 0.00210
395.19705 0.00135 0.00074 0.00343 0.00257 0.00184 0.00211
395.20566 0.00196 0.00392 0.00404 0.00270 0.00282 0.00213
395.21428 0.00283 0.00209 0.00246 0.00246 0.00012 0.00217
395.22285 0.00234 0.00333 0.00210 0.00259 0.00320 0.00219
395.23147 0.00258 0.00221 0.00135 0.00135 0.00209 0.00219
395.24007 0.00258 0.00258 0.00209 0.00221 0.00098 0.00223
395.24866 0.00306 0.00355 0.00282 0.00221 0.00343 0.00225
395.25727 0.00321 0.00210 0.00284 0.00445 0.00210 0.00229
395.26588 0.00293 0.00342 0.00318 0.00330 0.00427 0.00229
395.27446 0.00135 0.00209 0.00184 0.00147 0.00074 0.00234
395.28307 0.00197 0.00184 0.00246 0.00233 0.00283 0.00238
395.29165 0.00185 0.00456 0.00197 0.00259 0.00222 0.00238
395.30026 0.00320 0.00332 0.00320 0.00271 0.00271 0.00243
395.30887 0.00382 0.00197 0.00259 0.00222 0.00160 0.00248
395.31745 0.00284 0.00099 0.00334 0.00161 0.00198 0.00250
395.32606 0.00172 0.00283 0.00271 0.00345 0.00160 0.00255
395.33464 0.00357 0.00418 0.00382 0.00332 0.00332 0.00256
395.34325 0.00185 0.00210 0.00247 0.00210 0.00358 0.00261
395.35183 0.00422 0.00360 0.00434 0.00422 0.00422 0.00266
395.36044 0.00249 0.00323 0.00286 0.00299 0.00361 0.00269
395.36902 0.00198 0.00198 0.00297 0.00396 0.00445 0.00268
395.37764 0.00263 0.00513 0.00426 0.00376 0.00488 0.00275
395.38624 0.00349 0.00299 0.00461 0.00274 0.00224 0.00277
395.39483 0.00337 0.00500 0.00350 0.00375 0.00412 0.00280
395.40343 0.00299 0.00411 0.00423 0.00237 0.00386 0.00286
395.41202 0.00362 0.00312 0.00312 0.00187 0.00400 0.00287
395.42062 0.00399 0.00362 0.00387 0.00511 0.00449 0.00291
395.42921 0.00187 0.00436 0.00336 0.00286 0.00361 0.00296
395.43782 0.00262 0.00324 0.00299 0.00249 0.00337 0.00299
395.44640 0.00300 0.00275 0.00362 0.00325 0.00387 0.00305
395.45501 0.00250 0.00462 0.00312 0.00312 0.00462 0.00310
395.46359 0.00325 0.00362 0.00375 0.00362 0.00387 0.00314
395.47217 0.00459 0.00434 0.00471 0.00422 0.00372 0.00315
395.48077 0.00422 0.00633 0.00509 0.00471 0.00347 0.00319
395.48936 0.00249 0.00298 0.00385 0.00410 0.00373 0.00324
395.49797 0.00534 0.00472 0.00485 0.00447 0.00485 0.00328
395.50655 0.00447 0.00584 0.00410 0.00311 0.00472 0.00334
395.51516 0.00298 0.00174 0.00248 0.00236 0.00248 0.00335
395.52374 0.00421 0.00495 0.00408 0.00359 0.00383 0.00345
395.53235 0.00271 0.00419 0.00369 0.00283 0.00259 0.00345
395.54093 0.00360 0.00508 0.00409 0.00397 0.00409 0.00352
395.54951 0.00371 0.00494 0.00482 0.00457 0.00383 0.00353
395.55813 0.00409 0.00546 0.00484 0.00496 0.00273 0.00360
395.56670 0.00471 0.00582 0.00508 0.00421 0.00384 0.00366
395.57532 0.00532 0.00557 0.00458 0.00594 0.00532 0.00370
395.58389 0.00324 0.00436 0.00337 0.00486 0.00436 0.00381
395.59248 0.00447 0.00460 0.00460 0.00522 0.00348 0.00385
395.60108 0.00481 0.00444 0.00481 0.00444 0.00444 0.00386
395.60967 0.00348 0.00361 0.00423 0.00398 0.00423 0.00401
395.61824 0.00347 0.00334 0.00396 0.00446 0.00384 0.00403
395.62685 0.00557 0.00581 0.00532 0.00520 0.00309 0.00405
395.63544 0.00638 0.00675 0.00515 0.00675 0.00405 0.00413
395.64401 0.00332 0.00394 0.00431 0.00443 0.00480 0.00417
395.65263 0.00307 0.00332 0.00393 0.00540 0.00540 0.00421
395.66120 0.00443 0.00578 0.00603 0.00517 0.00504 0.00428
395.66979 0.00577 0.00466 0.00442 0.00430 0.00589 0.00435
395.67839 0.00494 0.00741 0.00704 0.00494 0.00593 0.00440
395.68698 0.00479 0.00454 0.00356 0.00540 0.00356 0.00449
395.69555 0.00503 0.00478 0.00429 0.00441 0.00576 0.00458
395.70417 0.00416 0.00673 0.00612 0.00587 0.00587 0.00461
395.71275 0.00354 0.00317 0.00488 0.00488 0.00452 0.00469
395.72133 0.00640 0.00664 0.00529 0.00430 0.00455 0.00478
395.72991 0.00610 0.00745 0.00708 0.00757 0.00671 0.00481
395.73852 0.00674 0.00686 0.00747 0.00698 0.00747 0.00488
395.74710 0.00685 0.00661 0.00709 0.00612 0.00648 0.00498
395.75568 0.00649 0.00539 0.00612 0.00636 0.00453 0.00501
395.76426 0.00560 0.00560 0.00694 0.00560 0.00548 0.00510
395.77288 0.00354 0.00489 0.00562 0.00623 0.00587 0.00520
395.78145 0.00465 0.00526 0.00514 0.00453 0.00440 0.00529
395.79003 0.00587 0.00722 0.00649 0.00636 0.00673 0.00537
395.79861 0.00550 0.00562 0.00635 0.00672 0.00586 0.00546
395.80719 0.00427 0.00573 0.00488 0.00561 0.00598 0.00554
395.81580 0.00599 0.00624 0.00575 0.00893 0.00660 0.00564
395.82438 0.00767 0.00718 0.00682 0.00791 0.00572 0.00568
395.83296 0.00499 0.00633 0.00621 0.00597 0.00609 0.00576
395.84154 0.00754 0.00827 0.00754 0.00681 0.00681 0.00585
395.85012 0.00625 0.00539 0.00601 0.00784 0.00699 0.00598
395.85873 0.00489 0.00562 0.00684 0.00513 0.00538 0.00606
395.86732 0.00669 0.00682 0.00803 0.00609 0.00621 0.00614
395.87589 0.00621 0.00658 0.00645 0.00536 0.00828 0.00625
395.88448 0.00610 0.00757 0.00769 0.00769 0.00794 0.00636
395.89305 0.00749 0.00822 0.00882 0.00749 0.00725 0.00638
395.90164 0.00832 0.00844 0.00724 0.00784 0.00712 0.00647
395.91024 0.00656 0.00728 0.00680 0.00619 0.00704 0.00672
395.91883 0.00729 0.00863 0.00790 0.00838 0.00838 0.00678
395.92740 0.00819 0.00856 0.00831 0.00709 0.00795 0.00687
395.93599 0.00687 0.00969 0.00797 0.00785 0.00896 0.00702
395.94457 0.00697 0.00929 0.00843 0.00843 0.00746 0.00708
395.95314 0.00746 0.00819 0.00795 0.00697 0.00990 0.00726
395.96173 0.00893 0.01113 0.00905 0.01015 0.00917 0.00737
395.97030 0.00789 0.01020 0.01032 0.00960 0.00996 0.00750
395.97889 0.00828 0.00998 0.01047 0.01071 0.01180 0.00799
395.98746 0.00780 0.00963 0.00927 0.00939 0.00914 0.00780
395.99605 0.00889 0.00853 0.00914 0.00950 0.00999 0.00792
396.00465 0.00884 0.01212 0.00993 0.00981 0.01018 0.00803
396.01324 0.00924 0.00924 0.01058 0.00924 0.01045 0.00828
396.02182 0.00704 0.01055 0.00970 0.00898 0.01043 0.00843
396.03040 0.00788 0.01140 0.01007 0.00970 0.00994 0.00861
396.03898 0.00739 0.00981 0.01199 0.01103 0.01212 0.00892
396.04756 0.00932 0.01271 0.01489 0.01138 0.01356 0.00915
396.05614 0.00975 0.01231 0.01341 0.01207 0.01341 0.00938
396.06472 0.01048 0.01413 0.01438 0.01194 0.01413 0.00967
396.07330 0.00921 0.01297 0.01333 0.01369 0.01394 0.01003
396.08188 0.01396 0.01482 0.01678 0.01420 0.01555 0.01050
396.09046 0.01183 0.01354 0.01561 0.01305 0.01391 0.01085
396.09903 0.01127 0.01418 0.01430 0.01309 0.01345 0.01136
396.10762 0.01192 0.01529 0.01553 0.01529 0.01674 0.01189
396.11619 0.01324 0.01649 0.01661 0.01552 0.01697 0.01234
396.12478 0.01561 0.01791 0.01815 0.01743 0.01731 0.01290
396.13336 0.01576 0.02024 0.01915 0.01855 0.02158 0.01339
396.14194 0.01570 0.01811 0.01932 0.01703 0.02029 0.01388
396.15052 0.01408 0.01853 0.02070 0.01757 0.02118 0.01444
396.15907 0.01519 0.01954 0.02014 0.02110 0.02122 0.01494
396.16765 0.01671 0.02163 0.02127 0.02055 0.02163 0.01559
396.17623 0.01729 0.02186 0.02366 0.02113 0.02378 0.01641
396.18481 0.01880 0.02407 0.02635 0.02407 0.02467 0.01711
396.19339 0.01757 0.02311 0.02443 0.02359 0.02527 0.01798
396.20197 0.01866 0.02537 0.02548 0.02381 0.02560 0.01854
396.21055 0.02038 0.02653 0.02641 0.02725 0.02966 0.01952
396.21913 0.02008 0.02634 0.02694 0.02694 0.02874 0.02022
396.22772 0.02193 0.02759 0.02807 0.02614 0.02903 0.02102
396.23629 0.02225 0.02994 0.03115 0.02826 0.03066 0.02185
396.24488 0.02213 0.03107 0.02926 0.02902 0.03204 0.02295
396.25342 0.02352 0.03354 0.03450 0.03088 0.03293 0.02368
396.26200 0.02504 0.03266 0.03326 0.03157 0.03375 0.02452
396.27058 0.02615 0.03459 0.03676 0.03278 0.03724 0.02561
396.27916 0.02761 0.03654 0.03714 0.03449 0.03979 0.02665
396.28774 0.02797 0.03628 0.03845 0.03436 0.04135 0.02765
396.29632 0.03291 0.04002 0.04051 0.03822 0.04388 0.02858
396.30490 0.03206 0.04327 0.04303 0.04122 0.04484 0.02983
396.31345 0.03239 0.04315 0.04339 0.04109 0.04641 0.03122
396.32203 0.03434 0.04550 0.04902 0.04574 0.05035 0.03242
396.33061 0.03462 0.04798 0.04871 0.04531 0.05053 0.03377
396.33919 0.03476 0.04757 0.05025 0.04659 0.05037 0.03548
396.34777 0.03863 0.05146 0.05461 0.04965 0.05679 0.03687
396.35633 0.03984 0.05170 0.05534 0.05086 0.05969 0.03862
396.36490 0.04311 0.05820 0.06037 0.05470 0.06230 0.04021
396.37349 0.04395 0.06020 0.06008 0.05623 0.06249 0.04206
396.38206 0.04629 0.06455 0.06757 0.06346 0.06962 0.04452
396.39062 0.04668 0.06587 0.06683 0.06143 0.07031 0.04647
396.39919 0.05046 0.06796 0.07146 0.06700 0.07327 0.04897
396.40778 0.05523 0.07344 0.07465 0.06946 0.08152 0.05147
396.41635 0.05802 0.07631 0.07885 0.07485 0.08369 0.05491
396.42490 0.05894 0.08003 0.08051 0.07605 0.08509 0.05743
396.43348 0.06145 0.08331 0.08707 0.08100 0.09193 0.06033
396.44206 0.06160 0.08588 0.09204 0.08455 0.09554 0.06354
396.45064 0.06948 0.08928 0.09766 0.08831 0.10312 0.06773
396.45919 0.07297 0.09692 0.10507 0.09303 0.10811 0.07104
396.46777 0.07449 0.10263 0.10724 0.09705 0.11331 0.07398
396.47635 0.07966 0.10956 0.11573 0.10532 0.12251 0.07855
396.48490 0.08529 0.11587 0.12586 0.11197 0.13816 0.08374
396.49348 0.08791 0.12414 0.13387 0.12074 0.14299 0.08727
396.50207 0.09105 0.13215 0.14357 0.12619 0.15597 0.09092
396.51064 0.09802 0.14491 0.15867 0.13845 0.17170 0.09714
396.51920 0.10487 0.14926 0.17633 0.14902 0.18950 0.10900
396.52777 0.11113 0.16816 0.18948 0.16462 0.20825 0.11885
396.53633 0.11561 0.18130 0.20869 0.17451 0.22856 0.11912
396.54490 0.12953 0.20012 0.23105 0.19308 0.26125 0.12014
396.55349 0.13750 0.21676 0.26521 0.21543 0.29300 0.12039
396.56203 0.14435 0.24522 0.29402 0.24027 0.32506 0.12097
396.57061 0.15753 0.27556 0.33234 0.26723 0.37656 0.12145
396.57919 0.17394 0.30261 0.38346 0.29401 0.44556 0.12211
396.58774 0.19186 0.34225 0.44803 0.34128 0.50651 0.12307
396.59632 0.21166 0.40136 0.52151 0.39250 0.58827 0.12313
396.60487 0.23298 0.45772 0.61167 0.44075 0.71979 0.12332
396.61345 0.26693 0.52647 0.74152 0.51423 0.87232 0.12360
396.62203 0.29965 0.61700 0.90053 0.62112 1.04841 0.12381
396.63058 0.33511 0.75065 1.09673 0.74139 1.29950 0.12472
396.63916 0.38254 0.90196 1.35616 0.88135 1.65503 0.12431
396.64771 0.44770 1.08003 1.72144 1.08875 2.09239 0.12429
396.65629 0.52124 1.36003 2.18429 1.38027 2.61115 0.12458
396.66488 0.60782 1.73514 2.77319 1.72944 3.32206 0.12489
396.67342 0.72564 2.17645 3.52128 2.17597 4.24186 0.12435
396.68201 0.90474 2.77789 4.47872 2.84737 5.27096 0.12467
396.69055 1.11029 3.63281 5.60465 3.71464 6.42873 0.12482
396.69914 1.32503 4.68727 6.83194 4.70657 7.74226 0.12470
396.70768 1.69410 5.95929 8.18690 6.03213 9.07977 0.12543
396.71627 2.20330 7.43506 9.46649 7.57073 10.24076 0.12490
396.72481 2.79346 9.24291 10.82600 9.20020 11.54208 0.12580
396.73339 3.50999 10.93554 12.01492 10.88790 12.65752 0.12536
396.74194 4.61609 12.57046 12.99583 12.57888 13.56228 0.12483
396.75052 5.97407 13.99739 13.93336 13.81973 14.59979 0.12477
396.75907 7.22852 15.04919 14.85604 14.95261 15.47962 0.12466
396.76765 8.76756 15.89392 15.47991 15.95052 15.93448 0.12443
396.77620 10.59917 16.44894 15.78444 16.52340 16.05239 0.12434
396.78478 12.01663 16.64506 15.71856 16.73599 15.73388 0.12457
396.79333 13.04487 16.55001 15.00825 16.68679 14.70530 0.12467
396.80191 14.07853 16.07462 13.24778 16.23327 12.72597 0.12445
396.81046 14.92318 14.85670 11.03165 15.01190 10.35072 0.12538
396.81901 15.16376 12.62128 8.55858 12.74102 7.91762 0.12446
396.82759 15.22092 10.19573 6.43726 10.16023 6.09260 0.12561
396.83614 15.08547 7.86378 4.79446 7.91021 4.61723 0.12528
396.84472 14.37728 5.95346 3.58317 6.09513 3.39175 0.12525
396.85327 12.62565 4.50975 2.61090 4.58275 2.48980 0.12570
396.86182 10.73939 3.35423 1.92527 3.37007 1.91415 0.12641
396.87040 8.97873 2.45971 1.48811 2.53464 1.47942 0.12620
396.87894 7.02986 1.87235 1.15871 1.96372 1.12652 0.12614
396.88753 5.28534 1.46097 0.88419 1.50142 0.88009 0.12632
396.89607 4.07782 1.11587 0.69787 1.14028 0.72540 0.12583
396.90463 3.16457 0.88203 0.58694 0.92410 0.59200 0.12623
396.91320 2.35022 0.71780 0.47568 0.75333 0.47930 0.12616
396.92176 1.75844 0.58811 0.38327 0.59867 0.39443 0.12576
396.93030 1.38977 0.47020 0.32672 0.48757 0.34241 0.12549
396.93889 1.12749 0.40160 0.29085 0.42500 0.29771 0.12836
396.94743 0.87662 0.34569 0.24673 0.36387 0.25125 0.12787
396.95599 0.67855 0.28649 0.19941 0.29230 0.21199 0.12436
396.96457 0.57995 0.24341 0.18244 0.25337 0.19360 0.12571
396.97312 0.47532 0.21318 0.16339 0.22886 0.16889 0.12546
396.98167 0.39410 0.18872 0.13971 0.19903 0.14618 0.12557
396.99025 0.33091 0.16474 0.12797 0.17130 0.13382 0.12512
396.99880 0.28661 0.14331 0.11567 0.14989 0.12237 0.12538
397.00735 0.24762 0.12975 0.10109 0.13862 0.10564 0.12564
397.01593 0.21113 0.11509 0.09030 0.12347 0.09593 0.12542
397.02448 0.18356 0.10552 0.08162 0.10899 0.08783 0.12515
397.03303 0.16641 0.09451 0.07527 0.09607 0.07912 0.12586
397.04157 0.14783 0.08776 0.07242 0.09172 0.07457 0.12533
397.05016 0.12954 0.07979 0.06321 0.08087 0.06717 0.12561
397.05870 0.11580 0.07072 0.05646 0.07420 0.06065 0.12509
397.06726 0.10690 0.06373 0.05399 0.06890 0.05664 0.12533
397.07580 0.09534 0.05902 0.04970 0.06189 0.05066 0.12429
397.08439 0.08291 0.05475 0.04497 0.05702 0.04736 0.12380
397.09293 0.07649 0.04893 0.04189 0.05084 0.04415 0.12337
397.10149 0.07160 0.04634 0.03795 0.04837 0.04095 0.12313
397.11003 0.06500 0.04182 0.03429 0.04361 0.03680 0.12176
397.11862 0.05976 0.04020 0.03256 0.04163 0.03340 0.11930
397.12716 0.05394 0.03521 0.02864 0.03497 0.03210 0.08662
397.13572 0.05094 0.03261 0.02607 0.03380 0.02868 0.05263
397.14426 0.04736 0.03106 0.02642 0.03237 0.02582 0.05004
397.15282 0.04114 0.02945 0.02409 0.03029 0.02695 0.04488
397.16136 0.03818 0.02379 0.02212 0.02688 0.02248 0.04141
397.16995 0.03693 0.02534 0.02235 0.02785 0.02415 0.03892
397.17849 0.03389 0.02434 0.02076 0.02482 0.02196 0.03558
397.18705 0.03378 0.02300 0.01857 0.02503 0.01904 0.03233
397.19559 0.02786 0.02114 0.01729 0.02090 0.01934 0.03024
397.20414 0.02617 0.01963 0.01725 0.02082 0.01642 0.02817
397.21269 0.02387 0.01823 0.01547 0.01811 0.01799 0.02636
397.22127 0.02219 0.01850 0.01539 0.01909 0.01623 0.02414
397.22982 0.02191 0.01762 0.01512 0.01881 0.01726 0.02278
397.23837 0.02123 0.01515 0.01467 0.01670 0.01563 0.02167
397.24692 0.01999 0.01688 0.01485 0.01784 0.01568 0.02056
397.25547 0.01864 0.01318 0.01246 0.01472 0.01187 0.01925
397.26402 0.01579 0.01316 0.01220 0.01423 0.01268 0.01854
397.27257 0.01681 0.01527 0.01266 0.01586 0.01491 0.01773
397.28112 0.01651 0.01461 0.01235 0.01472 0.01461 0.01696
397.28967 0.01556 0.01305 0.01125 0.01388 0.01209 0.01623
397.29822 0.01516 0.01184 0.01125 0.01385 0.01137 0.01543
397.30677 0.01546 0.01261 0.01249 0.01261 0.01285 0.01506
397.31532 0.01439 0.01225 0.01201 0.01439 0.01225 0.01445
397.32390 0.01465 0.01203 0.00976 0.01274 0.01119 0.01382
397.33245 0.01353 0.01068 0.00961 0.01044 0.01115 0.01343
397.34100 0.01215 0.01180 0.00991 0.00979 0.00908 0.01310
397.34954 0.01277 0.01100 0.01088 0.01112 0.01029 0.01259
397.35810 0.01261 0.01143 0.00931 0.01167 0.00907 0.01205
397.36664 0.01187 0.01127 0.00890 0.01222 0.01056 0.01186
397.37520 0.01100 0.00970 0.00875 0.01100 0.00816 0.01164
397.38374 0.01286 0.01121 0.01121 0.01098 0.01121 0.01124
397.39230 0.01010 0.00892 0.00844 0.00963 0.00903 0.01087
397.40084 0.01185 0.00936 0.00865 0.00960 0.01066 0.01063
397.40940 0.01034 0.00940 0.00940 0.01069 0.00917 0.01041
397.41794 0.01078 0.00983 0.00841 0.00948 0.00900 0.01018
397.42650 0.01006 0.00793 0.00959 0.01077 0.00840 0.00985
397.43504 0.01078 0.00817 0.00888 0.01054 0.00794 0.00972
397.44356 0.01030 0.00959 0.00924 0.01054 0.00935 0.00958
397.45211 0.01113 0.01019 0.00794 0.01090 0.00959 0.00934
397.46066 0.00968 0.00932 0.00836 0.00812 0.00788 0.00915
397.46921 0.01082 0.00820 0.00785 0.00796 0.00820 0.00896
397.47776 0.01024 0.00834 0.00881 0.00869 0.00845 0.00883
397.48631 0.00928 0.00845 0.00702 0.00726 0.00690 0.00865
397.49486 0.00817 0.00769 0.00758 0.00793 0.00687 0.00838
397.50341 0.00759 0.00711 0.00676 0.00687 0.00676 0.00825
397.51195 0.00664 0.00605 0.00616 0.00735 0.00676 0.00813
397.52051 0.00684 0.00625 0.00602 0.00661 0.00684 0.00795
397.52905 0.00920 0.00696 0.00696 0.00731 0.00672 0.00779
397.53761 0.00757 0.00804 0.00650 0.00816 0.00686 0.00765
397.54612 0.00767 0.00743 0.00708 0.00696 0.00566 0.00759
397.55468 0.00734 0.00616 0.00568 0.00568 0.00521 0.00740
397.56322 0.00687 0.00782 0.00640 0.00770 0.00663 0.00726
397.57178 0.00999 0.00800 0.00729 0.00694 0.00753 0.00709
397.58032 0.00768 0.00673 0.00685 0.00720 0.00708 0.00706
397.58888 0.00639 0.00604 0.00521 0.00438 0.00450 0.00694
397.59742 0.00641 0.00664 0.00664 0.00546 0.00700 0.00681
397.60595 0.00714 0.00785 0.00654 0.00714 0.00750 0.00674
397.61449 0.00701 0.00570 0.00701 0.00689 0.00713 0.00661
397.62305 0.00741 0.00610 0.00645 0.00657 0.00478 0.00654
397.63159 0.00468 0.00695 0.00540 0.00516 0.00707 0.00645
397.64015 0.00757 0.00710 0.00615 0.00568 0.00639 0.00631
397.64866 0.00668 0.00633 0.00609 0.00585 0.00513 0.00626
397.65722 0.00643 0.00750 0.00703 0.00631 0.00655 0.00618
397.66576 0.00544 0.00473 0.00426 0.00497 0.00544 0.00599
397.67431 0.00643 0.00595 0.00595 0.00726 0.00631 0.00591
397.68286 0.00724 0.00724 0.00676 0.00629 0.00629 0.00588
397.69138 0.00503 0.00503 0.00515 0.00467 0.00371 0.00584
397.69993 0.00685 0.00421 0.00481 0.00649 0.00469 0.00572
397.70848 0.00547 0.00595 0.00440 0.00678 0.00523 0.00558
397.71703 0.00579 0.00434 0.00519 0.00470 0.00579 0.00559
397.72554 0.00684 0.00660 0.00792 0.00816 0.00660 0.00549
397.73410 0.00586 0.00503 0.00491 0.00455 0.00407 0.00540
397.74264 0.00597 0.00406 0.00406 0.00346 0.00454 0.00533
397.75117 0.00716 0.00609 0.00525 0.00537 0.00645 0.00530
397.75971 0.00636 0.00492 0.00600 0.00456 0.00420 0.00522
397.76827 0.00528 0.00432 0.00504 0.00408 0.00396 0.00511
397.77681 0.00323 0.00287 0.00335 0.00395 0.00359 0.00504
397.78534 0.00599 0.00587 0.00622 0.00610 0.00455 0.00502
397.79388 0.00469 0.00589 0.00372 0.00493 0.00457 0.00493
397.80244 0.00347 0.00455 0.00443 0.00455 0.00502 0.00483
397.81095 0.00371 0.00395 0.00311 0.00359 0.00419 0.00481
397.81950 0.00467 0.00407 0.00491 0.00371 0.00335 0.00476
397.82805 0.00560 0.00548 0.00441 0.00453 0.00370 0.00469
397.83657 0.00598 0.00598 0.00550 0.00538 0.00622 0.00463
397.84512 0.00593 0.00581 0.00534 0.00569 0.00486 0.00456
397.85364 0.00489 0.00608 0.00501 0.00405 0.00429 0.00450
397.86219 0.00570 0.00486 0.00498 0.00463 0.00475 0.00440
397.87074 0.00524 0.00572 0.00381 0.00464 0.00453 0.00434
397.87926 0.00535 0.00428 0.00404 0.00475 0.00464 0.00430
397.88780 0.00478 0.00538 0.00622 0.00430 0.00442 0.00426
397.89636 0.00527 0.00503 0.00443 0.00491 0.00527 0.00420
397.90487 0.00394 0.00442 0.00358 0.00478 0.00347 0.00415
397.91343 0.00406 0.00418 0.00406 0.00442 0.00370 0.00419
397.92194 0.00333 0.00392 0.00202 0.00309 0.00428 0.00405
397.93050 0.00382 0.00394 0.00418 0.00454 0.00382 0.00402
397.93901 0.00417 0.00333 0.00107 0.00464 0.00345 0.00395
397.94757 0.00275 0.00215 0.00143 0.00227 0.00143 0.00390
397.95611 0.00333 0.00429 0.00441 0.00310 0.00238 0.00384
397.96464 0.00370 0.00358 0.00465 0.00477 0.00310 0.00380
397.97318 0.00355 0.00296 0.00367 0.00237 0.00344 0.00372
397.98170 0.00533 0.00486 0.00450 0.00379 0.00379 0.00367
397.99025 0.00344 0.00416 0.00499 0.00392 0.00416 0.00365
397.99877 0.00308 0.00355 0.00332 0.00308 0.00343 0.00360
398.00732 0.00238 0.00310 0.00143 0.00298 0.00250 0.00359
398.01583 0.00261 0.00355 0.00237 0.00320 0.00296 0.00350
398.02439 0.00426 0.00106 0.00213 0.00213 0.00236 0.00349
398.03290 0.00605 0.00546 0.00522 0.00439 0.00451 0.00345
398.04146 0.00606 0.00582 0.00487 0.00463 0.00392 0.00339
398.04997 0.00284 0.00178 0.00154 0.00213 0.00118 0.00335
398.05853 0.00545 0.00260 0.00391 0.00296 0.00260 0.00333
398.06704 0.00369 0.00393 0.00298 0.00203 0.00119 0.00328
398.07560 0.00297 0.00380 0.00297 0.00356 0.00415 0.00320
398.08411 0.00295 0.00355 0.00284 0.00260 0.00154 0.00316
398.09267 0.00261 0.00190 0.00178 0.00202 0.00238 0.00314
398.10118 0.00460 0.00366 0.00259 0.00307 0.00248 0.00306
398.10971 0.00191 0.00238 0.00286 0.00227 0.00441 0.00306
398.11825 0.00413 0.00248 0.00330 0.00307 0.00212 0.00301
398.12678 0.00226 0.00191 0.00250 0.00381 0.00238 0.00300
398.13532 0.00321 0.00274 0.00297 0.00297 0.00178 0.00298
398.14383 0.00307 0.00448 0.00307 0.00460 0.00413 0.00289
398.15239 0.00286 0.00167 0.00167 0.00167 0.00143 0.00289
398.16090 0.00201 0.00213 0.00189 0.00237 0.00130 0.00286
398.16943 0.00380 0.00249 0.00273 0.00391 0.00225 0.00281
398.17797 0.00119 0.00369 0.00274 0.00310 0.00238 0.00277
398.18650 0.00213 0.00213 0.00379 0.00225 0.00190 0.00275
398.19501 0.00356 0.00427 0.00380 0.00273 0.00261 0.00272
398.20357 0.00248 0.00213 0.00260 0.00154 0.00142 0.00267
398.21208 0.00238 0.00345 0.00155 0.00393 0.00309 0.00266
398.22064 0.00307 0.00295 0.00319 0.00260 0.00177 0.00263
398.22915 0.00235 0.00328 0.00188 0.00446 0.00317 0.00258
398.23768 0.00250 0.00333 0.00285 0.00309 0.00392 0.00260
398.24622 0.00154 0.00202 0.00237 0.00368 0.00142 0.00253
398.25474 0.00357 0.00167 0.00286 0.00155 0.00238 0.00251
398.26326 0.00369 0.00250 0.00238 0.00392 0.00155 0.00249
398.27178 0.00537 0.00441 0.00358 0.00418 0.00358 0.00245
398.28033 0.00167 0.00286 0.00202 0.00238 0.00155 0.00244
398.28885 0.00274 0.00215 0.00119 0.00239 0.00179 0.00241
398.29737 0.00404 0.00368 0.00344 0.00309 0.00309 0.00236
398.30591 0.00323 0.00323 0.00311 0.00311 0.00131 0.00236
398.31444 0.00262 0.00262 0.00226 0.00179 0.00215 0.00235
398.32295 0.00167 0.00191 0.00250 0.00072 0.00191 0.00228
398.33148 0.00333 0.00285 0.00214 0.00369 0.00190 0.00228
398.34002 0.00381 0.00416 0.00464 0.00274 0.00369 0.00226
398.34854 0.00273 0.00131 0.00202 0.00214 0.00095 0.00224
398.35706 0.00225 0.00189 0.00083 0.00284 0.00189 0.00219
398.36558 0.00155 0.00214 0.00261 0.00024 0.00155 0.00219
398.37413 0.00213 0.00237 0.00095 0.00178 0.00308 0.00215
398.38265 0.00180 0.00048 0.00132 0.00239 0.00203 0.00214
398.39117 0.00203 0.00203 0.00167 0.00179 0.00167 0.00212
398.39969 0.00095 0.00203 0.00048 0.00012 0.00095 0.00209
398.40821 0.00168 0.00192 0.00204 0.00228 0.00228 0.00206
398.41676 0.00191 0.00131 0.00108 0.00167 0.00287 0.00204
398.42528 0.00202 0.00131 0.00048 -0.00012 -0.00012 0.00205
398.43380 0.00273 0.00261 0.00320 0.00284 0.00130 0.00199
398.44231 0.00142 0.00130 0.00154 0.00130 0.00059 0.00198
398.45083 0.00179 0.00191 0.00119 0.00155 0.00036 0.00194
398.45938 0.00275 0.00239 0.00119 0.00263 0.00275 0.00194
398.46790 0.00201 0.00142 0.00178 0.00118 0.00047 0.00190
398.47642 0.00203 0.00167 0.00275 0.00155 0.00239 0.00195
398.48494 0.00262 0.00190 0.00155 0.00095 0.00131 0.00194
398.49346 0.00189 0.00130 0.00225 0.00071 0.00142 0.00188
398.50198 0.00118 0.00024 0.00071 0.00296 0.00107 0.00182
398.51050 0.00118 0.00047 0.00118 0.00012 0.00082 0.00183
398.51901 0.00249 0.00166 0.00119 0.00190 0.00190 0.00182
398.52757 0.00331 0.00272 0.00047 0.00189 0.00378 0.00176
398.53608 0.00107 0.00273 0.00261 0.00131 0.00024 0.00174
398.54461 0.00167 0.00095 0.00155 0.00095 0.00202 0.00175
398.55312 -0.00071 0.00071 0.00059 0.00131 0.00107 0.00174
398.56165 0.00424 0.00354 0.00295 0.00200 0.00177 0.00172
398.57016 0.00224 0.00201 0.00165 0.00224 0.00283 0.00168
398.57869 0.00287 0.00311 0.00203 0.00119 0.00239 0.00169
398.58720 0.00012 0.00083 0.00166 0.00118 0.00095 0.00164
398.59572 0.00048 0.00131 -0.00071 0.00024 0.00012 0.00164
398.60424 0.00119 0.00095 0.00143 0.00178 0.00154 0.00163
398.61275 0.00297 0.00368 0.00273 0.00214 0.00249 0.00163
398.62128 0.00154 0.00296 0.00166 0.00106 0.00130 0.00159
398.62979 0.00143 0.00131 -0.00024 0.00024 0.00048 0.00160
398.63832 0.00083 -0.00036 0.00059 0.00071 0.00024 0.00161
398.64683 0.00108 0.00228 0.00144 0.00072 0.00120 0.00155
398.65536 0.00263 0.00179 0.00191 0.00119 0.00024 0.00155
398.66387 0.00144 0.00191 0.00347 0.00179 0.00156 0.00153
398.67239 0.00192 0.00275 0.00180 0.00180 0.00132 0.00152
398.68091 0.00048 0.00179 0.00107 0.00072 0.00167 0.00153
398.68943 0.00048 0.00048 0.00071 0.00119 0.00048 0.00149
398.69795 0.00368 0.00356 0.00392 0.00368 0.00237 0.00146
398.70647 0.00178 0.00059 0.00036 0.00190 0.00250 0.00146
398.71499 0.00108 0.00144 0.00036 0.00000 0.00072 0.00145
398.72351 0.00119 0.00179 0.00203 0.00215 0.00131 0.00143
398.73202 0.00274 0.00179 0.00203 0.00250 0.00298 0.00142
398.74055 0.00144 0.00251 0.00036 0.00000 -0.00036 0.00138
398.74906 0.00204 0.00108 0.00060 0.00168 0.00120 0.00140
398.75759 0.00000 0.00144 0.00240 0.00156 0.00000 0.00141
398.76610 0.00000 0.00024 0.00036 0.00024 -0.00024 0.00135
398.77462 0.00192 0.00144 0.00204 0.00216 0.00120 0.00137
398.78314 0.00229 0.00193 0.00121 0.00145 0.00072 0.00136
398.79166 -0.00084 0.00012 -0.00060 0.00036 0.00036 0.00131
398.80015 0.00036 0.00205 0.00012 0.00193 0.00230 0.00132
398.80866 0.00217 0.00313 0.00241 0.00241 0.00181 0.00127
398.81719 0.00192 0.00108 0.00180 0.00229 0.00168 0.00129
398.82570 0.00217 0.00169 0.00205 0.00326 0.00253 0.00129
398.83423 0.00096 0.00072 0.00012 0.00072 -0.00048 0.00125
398.84274 0.00109 0.00170 0.00024 -0.00012 -0.00012 0.00127
398.85127 0.00108 -0.00036 -0.00036 0.00024 0.00000 0.00123
398.85978 0.00230 0.00181 0.00072 0.00121 0.00024 0.00123
398.86827 0.00204 0.00084 0.00036 -0.00012 0.00096 0.00119
398.87679 0.00155 0.00346 0.00000 0.00131 0.00191 0.00119
398.88531 0.00155 0.00120 0.00203 0.00120 0.00144 0.00120
398.89383 0.00287 0.00072 0.00132 0.00036 0.00120 0.00119
398.90235 0.00132 0.00289 0.00036 0.00253 0.00060 0.00117
398.91084 0.00311 0.00251 0.00359 0.00131 0.00311 0.00113
398.91935 -0.00012 0.00048 0.00024 0.00012 0.00096 0.00115
398.92787 0.00358 0.00012 0.00048 0.00131 0.00036 0.00112
398.93639 0.00060 -0.00024 0.00133 -0.00097 0.00036 0.00109
398.94491 0.00096 0.00060 0.00241 0.00096 -0.00048 0.00111
398.95340 0.00181 0.00206 0.00230 0.00254 0.00193 0.00108
398.96192 0.00216 0.00036 0.00253 0.00132 0.00204 0.00109
398.97044 0.00192 0.00204 0.00024 0.00096 0.00192 0.00108
398.97896 0.00327 0.00194 0.00230 0.00290 0.00073 0.00106
398.98744 0.00072 -0.00024 -0.00048 0.00144 0.00048 0.00108
398.99597 0.00277 0.00229 0.00229 0.00229 0.00168 0.00105
399.00448 0.00000 0.00048 0.00120 0.00132 0.00060 0.00102
399.01301 0.00096 -0.00084 -0.00012 -0.00060 -0.00157 0.00104
399.02149 0.00121 -0.00096 0.00048 0.00084 0.00024 0.00102
399.03002 0.00060 0.00000 0.00012 0.00120 -0.00048 0.00102
399.03853 0.00000 -0.00072 0.00060 -0.00048 -0.00084 0.00103
399.04702 0.00048 0.00048 0.00036 -0.00180 -0.00036 0.00099
399.05554 -0.00072 0.00120 -0.00072 0.00072 0.00060 0.00098
399.06406 -0.00096 0.00024 0.00012 0.00132 0.00048 0.00097
399.07255 0.00119 0.00143 0.00178 0.00202 0.00166 0.00097
399.08106 0.00072 -0.00024 0.00036 -0.00060 0.00072 0.00093
399.08959 -0.00120 0.00000 -0.00167 -0.00108 -0.00155 0.00096
399.09807 0.00036 0.00203 -0.00036 -0.00012 -0.00060 0.00092
399.10659 -0.00012 0.00012 0.00084 -0.00036 0.00072 0.00093
399.11511 0.00215 0.00144 0.00108 0.00084 0.00108 0.00092
399.12360 0.00059 -0.00036 0.00000 0.00107 -0.00166 0.00090
399.13212 0.00120 0.00108 0.00000 0.00072 0.00048 0.00086
399.14064 0.00167 0.00215 0.00036 0.00024 0.00000 0.00088
399.14912 0.00084 0.00227 0.00215 0.00167 0.00060 0.00089
399.15765 0.00217 0.00253 0.00096 0.00265 0.00108 0.00088
399.16613 0.00228 0.00084 -0.00036 0.00036 0.00000 0.00087
399.17466 0.00012 -0.00048 0.00120 0.00072 -0.00012 0.00087
399.18317 -0.00024 0.00121 0.00121 0.00205 0.00302 0.00087
399.19167 0.00121 0.00217 0.00133 0.00121 0.00012 0.00085
399.20018 0.00193 0.00084 0.00217 0.00193 0.00048 0.00085
399.20867 0.00183 0.00281 0.00171 0.00098 0.00183 0.00084
399.21719 0.00024 -0.00036 -0.00109 -0.00121 0.00000 0.00084
399.22568 0.00181 0.00109 0.00012 0.00133 0.00073 0.00084
399.23420 0.00073 0.00024 0.00048 -0.00024 0.00085 0.00081
399.24271 0.00180 0.00180 0.00144 0.00180 0.00241 0.00081
399.25121 -0.00121 -0.00060 0.00073 0.00048 -0.00060 0.00080
399.25972 0.00193 0.00121 0.00181 0.00133 0.00277 0.00079
399.26821 0.00072 0.00229 0.00108 0.00168 0.00132 0.00080
399.27673 0.00084 0.00036 0.00036 0.00048 0.00048 0.00079
399.28522 0.00072 -0.00024 0.00012 0.00060 0.00012 0.00080
399.29374 0.00132 0.00084 -0.00048 0.00084 -0.00024 0.00079
399.30223 0.00036 0.00036 -0.00108 -0.00036 -0.00168 0.00077
399.31074 0.00012 -0.00072 -0.00048 -0.00072 -0.00084 0.00076
399.31924 0.00252 0.00084 0.00264 0.00276 0.00180 0.00077
399.32775 0.00145 0.00024 -0.00085 0.00024 0.00072 0.00076
399.33625 -0.00012 0.00060 0.00000 0.00024 -0.00072 0.00075
399.34476 0.00084 0.00060 -0.00108 -0.00024 0.00084 0.00075
399.35325 0.00108 0.00108 0.00024 0.00012 0.00108 0.00075
399.36174 -0.00121 -0.00061 0.00085 -0.00085 -0.00061 0.00074
399.37026 0.00024 0.00060 0.00000 0.00000 0.00060 0.00074
399.37875 -0.00048 -0.00205 -0.00120 -0.00157 -0.00096 0.00071
399.38726 0.00084 0.00024 0.00036 0.00120 -0.00024 0.00072
399.39576 0.00170 0.00170 -0.00012 0.00145 -0.00073 0.00088
399.40427 0.00108 -0.00048 0.00132 -0.00156 -0.00036 0.00087
399.41276 -0.00109 0.00084 0.00217 0.00072 0.00109 0.00075
399.42125 0.00121 0.00097 0.00217 0.00036 0.00169 0.00070
399.42977 0.00036 0.00048 -0.00012 0.00024 -0.00073 0.00069
399.43826 0.00000 -0.00061 0.00049 -0.00036 0.00000 0.00065
399.44678 0.00000 -0.00036 0.00060 0.00036 0.00060 0.00067
399.45526 0.00048 0.00072 0.00108 0.00108 0.00048 0.00070
399.46376 0.00073 0.00121 0.00036 0.00049 0.00121 0.00067
399.47227 0.00182 0.00024 0.00169 0.00145 0.00109 0.00066
399.48077 0.00206 0.00290 0.00133 0.00181 0.00327 0.00065
399.48925 0.00169 0.00145 0.00036 0.00036 0.00000 0.00066
399.49777 0.00085 0.00170 0.00122 0.00207 0.00085 0.00064
399.50626 0.00133 -0.00012 0.00061 0.00109 0.00242 0.00065
399.51475 0.00085 0.00097 0.00207 0.00085 0.00073 0.00066
399.52327 0.00000 0.00073 0.00097 0.00012 -0.00024 0.00064
399.53176 0.00085 0.00133 0.00073 0.00073 0.00049 0.00063
399.54024 0.00205 0.00036 0.00109 0.00169 -0.00048 0.00062
399.54876 -0.00024 -0.00085 -0.00097 -0.00024 -0.00171 0.00062
399.55725 0.00037 -0.00024 0.00061 0.00049 0.00085 0.00061
399.56574 0.00000 0.00158 0.00061 0.00109 0.00073 0.00064
399.57423 0.00061 0.00109 0.00073 0.00073 -0.00012 0.00062
399.58275 0.00061 -0.00097 -0.00134 0.00134 -0.00134 0.00061
399.59124 0.00096 0.00193 0.00205 0.00108 0.00241 0.00061
399.59972 -0.00012 0.00109 -0.00097 -0.00072 -0.00084 0.00060
399.60822 0.00048 0.00061 0.00036 -0.00048 0.00012 0.00061
399.61673 0.00024 0.00048 0.00048 0.00097 0.00194 0.00060
399.62522 0.00036 0.00000 0.00158 0.00000 -0.00085 0.00063
399.63371 0.00266 0.00036 0.00060 0.00145 0.00000 0.00061
399.64220 0.00024 -0.00170 0.00024 -0.00012 -0.00121 0.00059
399.65072 -0.00072 -0.00024 -0.00012 0.00024 -0.00169 0.00059
399.65921 0.00024 -0.00024 0.00000 0.00168 -0.00108 0.00058
399.66769 0.00121 0.00060 0.00048 0.00024 0.00072 0.00059
399.67619 0.00241 0.00109 0.00036 0.00072 0.00012 0.00059
399.68467 -0.00012 -0.00048 -0.00060 -0.00024 -0.00205 0.00055
399.69320 0.00133 0.00097 0.00182 -0.00048 0.00000 0.00056
399.70168 0.00048 -0.00024 0.00000 0.00048 0.00012 0.00056
399.71016 0.00000 -0.00012 -0.00012 0.00060 -0.00168 0.00054
399.71866 -0.00012 0.00048 0.00000 0.00121 -0.00012 0.00057
399.72714 0.00157 0.00096 0.00253 0.00024 0.00217 0.00056
399.73564 0.00000 -0.00036 -0.00157 -0.00084 -0.00060 0.00054
399.74415 -0.00097 -0.00036 -0.00085 -0.00036 -0.00012 0.00053
399.75264 0.00072 0.00012 -0.00012 0.00024 -0.00072 0.00052
399.76113 0.00146 0.00073 0.00000 0.00012 0.00036 0.00054
399.76962 0.00122 -0.00146 -0.00024 -0.00037 0.00085 0.00053
399.77811 -0.00109 -0.00085 -0.00158 -0.00121 -0.00024 0.00054
399.78660 0.00109 0.00036 0.00097 0.00182 0.00061 0.00054
399.79508 0.00024 0.00024 0.00012 0.00048 0.00000 0.00052
399.80358 0.00170 0.00194 0.00146 0.00218 0.00279 0.00052
399.81206 0.00048 -0.00085 0.00000 0.00048 0.00036 0.00052
399.82056 0.00085 -0.00109 0.00097 0.00061 -0.00109 0.00052
399.82907 0.00205 0.00096 0.00144 -0.00084 -0.00012 0.00051
399.83756 0.00109 0.00097 0.00000 0.00060 0.00048 0.00051
399.84605 0.00109 0.00036 0.00109 0.00061 0.00049 0.00052
399.85454 0.00000 0.00036 0.00096 0.00156 0.00000 0.00050
399.86303 0.00060 0.00060 0.00060 -0.00048 0.00024 0.00050
399.87151 0.00193 0.00036 0.00036 -0.00012 -0.00048 0.00049
399.88000 0.00085 0.00267 0.00061 0.00012 0.00109 0.00051
399.88849 -0.00024 0.00169 -0.00024 0.00133 -0.00097 0.00051
399.89698 -0.00133 -0.00109 0.00109 0.00012 0.00049 0.00048
399.90547 -0.00072 0.00048 0.00000 0.00000 0.00108 0.00049
399.91396 0.00158 0.00024 0.00085 0.00085 0.00024 0.00048
399.92244 0.00205 0.00157 0.00242 0.00097 0.00169 0.00050
399.93094 0.00122 0.00183 0.00061 0.00049 -0.00012 0.00048
399.93942 0.00182 -0.00024 0.00243 0.00122 -0.00012 0.00048
399.94791 0.00109 0.00182 0.00158 0.00012 0.00073 0.00047
399.95640 0.00037 0.00170 0.00146 0.00146 0.00073 0.00048
399.96489 -0.00036 0.00109 0.00012 0.00012 0.00036 0.00046
399.97338 0.00182 0.00049 0.00049 0.00097 0.00133 0.00047
399.98187 0.00061 -0.00085 0.00182 0.00036 -0.00049 0.00047
399.99035 0.00207 0.00012 0.00085 0.00000 0.00122 0.00048
399.99885 -0.00195 -0.00061 -0.00146 -0.00049 -0.00049 0.00046
400.00733 -0.00110 -0.00085 -0.00049 0.00012 -0.00098 0.00048
400.01579 0.00210 0.00271 0.00160 0.00074 0.00148 0.00048
400.02428 0.00049 -0.00025 0.00098 0.00062 0.00098 0.00046
400.03276 0.00183 0.00147 0.00195 0.00171 0.00244 0.00047
400.04126 0.00271 0.00234 0.00197 0.00197 0.00049 0.00046
400.04974 -0.00012 0.00037 -0.00098 -0.00037 0.00012 0.00046
400.05823 0.00062 0.00012 -0.00049 -0.00025 0.00025 0.00046
400.06672 0.00110 0.00134 0.00061 0.00146 0.00012 0.00046
400.07521 0.00074 0.00000 -0.00099 -0.00148 -0.00099 0.00046
400.08370 0.00061 -0.00025 -0.00147 -0.00098 0.00012 0.00046
400.09216 0.00111 -0.00037 0.00037 -0.00148 0.00025 0.00045
400.10064 0.00147 0.00135 0.00209 0.00086 0.00160 0.00044
400.10914 0.00258 0.00172 0.00196 0.00110 0.00012 0.00045
400.11762 0.00037 -0.00049 -0.00073 -0.00073 0.00000 0.00043
400.12612 0.00037 -0.00037 -0.00061 -0.00172 -0.00012 0.00044
400.13460 0.00049 -0.00012 0.00098 0.00049 -0.00024 0.00045
400.14306 0.00074 -0.00086 0.00061 0.00037 -0.00110 0.00044
400.15155 0.00012 0.00086 0.00061 0.00184 -0.00037 0.00043
400.16004 0.00012 -0.00074 -0.00025 -0.00012 -0.00049 0.00045
400.16852 -0.00024 0.00000 0.00000 -0.00110 -0.00073 0.00042
400.17701 0.00025 -0.00196 0.00123 -0.00049 -0.00184 0.00044
400.18547 0.00184 0.00184 -0.00049 0.00061 0.00061 0.00042
400.19396 0.00073 -0.00134 -0.00195 -0.00147 -0.00134 0.00042
400.20245 0.00098 0.00147 0.00123 0.00012 0.00074 0.00042
400.21093 0.00123 0.00074 0.00147 0.00000 0.00012 0.00043
400.21943 0.00025 -0.00098 -0.00135 0.00037 0.00049 0.00042
400.22788 -0.00012 0.00062 0.00099 0.00000 -0.00012 0.00043
400.23637 0.00208 -0.00061 -0.00025 0.00000 -0.00025 0.00042
400.24486 0.00160 0.00111 -0.00037 -0.00025 0.00172 0.00041
400.25332 0.00074 0.00086 0.00000 0.00037 -0.00074 0.00041
400.26181 0.00012 -0.00135 -0.00073 0.00086 -0.00183 0.00041
400.27030 0.00024 0.00037 0.00037 0.00012 -0.00037 0.00042
400.27878 -0.00037 -0.00037 -0.00086 -0.00012 -0.00147 0.00040
400.28725 0.00134 0.00110 0.00098 0.00012 0.00012 0.00041
400.29573 0.00110 0.00086 0.00049 0.00110 0.00245 0.00040
400.30422 0.00073 0.00135 -0.00049 -0.00024 -0.00049 0.00039
400.31268 -0.00037 -0.00073 -0.00183 -0.00098 -0.00135 0.00040
400.32117 0.00024 0.00146 0.00061 -0.00036 0.00109 0.00037
400.32966 0.00183 0.00183 0.00073 0.00098 0.00122 0.00041
400.33811 0.00171 0.00012 -0.00122 -0.00122 -0.00037 0.00039
400.34660 0.00110 0.00134 0.00158 0.00122 0.00244 0.00040
400.35509 0.00061 -0.00012 0.00061 0.00147 -0.00049 0.00039
400.36355 -0.00037 -0.00049 -0.00049 -0.00098 -0.00037 0.00040
400.37203 0.00233 -0.00049 0.00098 0.00147 0.00024 0.00037
400.38053 -0.00037 0.00146 0.00024 0.00024 -0.00061 0.00038
400.38898 0.00220 0.00183 0.00268 0.00207 0.00073 0.00040
400.39748 -0.00049 -0.00037 -0.00024 0.00024 0.00024 0.00039
400.40593 0.00085 -0.00073 -0.00049 -0.00049 0.00000 0.00037
400.41442 0.00098 0.00134 0.00171 0.00061 -0.00037 0.00038
400.42291 -0.00037 -0.00220 -0.00159 -0.00208 -0.00024 0.00038
400.43137 -0.00037 0.00073 0.00037 0.00000 0.00049 0.00037
400.43985 0.00061 -0.00037 0.00061 -0.00086 -0.00012 0.00037
400.44832 0.00000 0.00073 0.00037 0.00073 0.00098 0.00038
400.45680 0.00319 0.00074 0.00086 0.00074 0.00061 0.00038
400.46529 0.00012 -0.00073 -0.00061 -0.00012 -0.00086 0.00037
400.47375 -0.00049 -0.00086 -0.00110 -0.00159 -0.00098 0.00038
400.48224 -0.00061 0.00074 -0.00025 -0.00012 -0.00086 0.00036
400.49070 0.00232 0.00208 0.00196 0.00220 0.00147 0.00038
400.49918 -0.00061 -0.00024 -0.00061 -0.00024 0.00037 0.00035
400.50764 0.00012 -0.00024 -0.00073 -0.00024 -0.00012 0.00038
400.51613 0.00049 -0.00207 -0.00037 -0.00037 -0.00085 0.00035
400.52459 0.00073 -0.00061 -0.00110 -0.00049 -0.00061 0.00035
400.53307 0.00098 -0.00061 0.00000 -0.00037 -0.00171 0.00038
400.54154 -0.00110 -0.00122 -0.00281 -0.00134 -0.00110 0.00037
400.55002 0.00171 0.00098 0.00147 -0.00024 0.00098 0.00034
400.55848 -0.00025 -0.00037 0.00086 0.00037 0.00074 0.00035
400.56697 0.00172 0.00012 0.00025 -0.00074 0.00062 0.00037
400.57543 0.00136 0.00234 0.00099 0.00049 0.00136 0.00036
400.58392 -0.00161 -0.00272 -0.00211 -0.00211 -0.00248 0.00037
400.59238 -0.00062 -0.00160 -0.00062 -0.00086 -0.00209 0.00034
400.60086 0.00025 0.00111 -0.00049 0.00025 -0.00025 0.00036
400.60933 0.00197 0.00259 0.00148 0.00136 0.00222 0.00034
400.61778 0.00149 0.00223 0.00161 0.00111 0.00136 0.00036
400.62627 -0.00074 0.00086 -0.00012 0.00074 -0.00025 0.00036
400.63473 0.00111 -0.00025 0.00025 -0.00037 0.00136 0.00037
400.64321 0.00173 -0.00124 0.00074 0.00012 -0.00074 0.00035
400.65167 0.00000 -0.00012 0.00000 -0.00049 0.00074 0.00037
400.66016 -0.00111 -0.00061 0.00025 -0.00049 -0.00258 0.00034
400.66862 -0.00135 -0.00086 -0.00061 0.00012 0.00049 0.00036
400.67707 0.00000 -0.00062 0.00111 -0.00198 -0.00074 0.00021
400.68557 0.00025 -0.00098 0.00000 -0.00074 0.00049 0.00037
400.69402 0.00025 0.00173 0.00037 -0.00025 0.00049 0.00038
400.70249 0.00025 -0.00074 0.00037 -0.00099 0.00049 0.00037
400.71097 -0.00025 -0.00012 -0.00062 0.00099 -0.00037 0.00034
400.71943 0.00050 0.00074 -0.00124 0.00087 0.00074 0.00037
400.72792 0.00037 -0.00099 0.00099 0.00050 -0.00124 0.00034
400.73638 0.00000 0.00025 0.00159 -0.00037 0.00074 0.00034
400.74483 0.00049 0.00086 -0.00037 -0.00025 -0.00061 0.00035
400.75333 -0.00160 0.00000 0.00025 -0.00123 -0.00061 0.00035
400.76178 -0.00037 0.00185 0.00272 -0.00049 0.00049 0.00036
400.77024 0.00062 -0.00037 0.00062 -0.00062 -0.00049 0.00036
400.77870 0.00074 -0.00086 -0.00037 -0.00012 -0.00111 0.00035
400.78719 0.00123 0.00025 -0.00074 0.00025 -0.00098 0.00033
400.79564 0.00160 0.00025 0.00000 0.00123 0.00049 0.00037
400.80410 -0.00110 -0.00393 -0.00123 -0.00172 -0.00221 0.00036
400.81259 0.00037 -0.00049 -0.00195 0.00037 -0.00098 0.00034
400.82104 -0.00160 0.00012 0.00086 -0.00025 -0.00074 0.00033
400.82951 -0.00098 -0.00012 0.00049 0.00037 -0.00123 0.00037
400.83796 -0.00159 -0.00147 -0.00245 -0.00208 -0.00122 0.00033
400.84646 0.00012 -0.00086 0.00025 0.00012 -0.00037 0.00035
400.85491 -0.00012 -0.00123 -0.00025 0.00000 0.00012 0.00034
400.86337 0.00110 -0.00061 0.00147 0.00098 0.00049 0.00035
400.87183 -0.00012 0.00012 -0.00049 0.00073 -0.00037 0.00033
400.88032 -0.00025 0.00012 0.00000 0.00086 0.00074 0.00033
400.88877 0.00110 -0.00098 -0.00098 -0.00049 -0.00171 0.00034
400.89724 -0.00037 0.00062 -0.00111 0.00037 0.00012 0.00034
400.90569 0.00049 -0.00037 0.00061 -0.00049 -0.00086 0.00036
400.91415 0.00099 0.00049 0.00123 0.00099 0.00136 0.00033
400.92264 0.00160 0.00172 0.00111 0.00172 0.00074 0.00032
400.93110 0.00123 0.00135 -0.00049 0.00037 -0.00062 0.00035
400.93955 -0.00086 -0.00025 -0.00049 0.00062 -0.00025 0.00035
400.94802 -0.00295 0.00025 -0.00074 -0.00098 -0.00246 0.00033
400.95647 0.00062 -0.00012 0.00246 -0.00025 0.00098 0.00033
400.96492 0.00185 0.00235 0.00161 0.00161 0.00099 0.00032
400.97342 0.00136 0.00074 0.00148 0.00099 0.00111 0.00034
400.98187 0.00049 -0.00074 0.00111 -0.00062 0.00086 0.00033
400.99033 0.00147 0.00025 0.00172 0.00049 0.00000 0.00030
400.99879 -0.00037 0.00000 -0.00024 -0.00171 0.00073 0.00033
401.00725 -0.00074 -0.00061 -0.00111 -0.00111 0.00098 0.00032
401.01570 0.00000 -0.00062 -0.00086 -0.00086 -0.00074 0.00033
401.02417 -0.00061 0.00012 0.00061 -0.00098 -0.00110 0.00032
401.03262 0.00258 0.00209 0.00221 0.00356 0.00123 0.00034
401.04112 0.00074 0.00160 0.00061 0.00074 0.00086 0.00033
401.04957 -0.00223 -0.00074 -0.00136 -0.00198 -0.00149 0.00032
401.05803 -0.00012 -0.00025 -0.00025 0.00049 -0.00086 0.00033
401.06649 0.00074 0.00099 0.00210 0.00062 0.00087 0.00034
401.07495 -0.00086 -0.00098 -0.00049 -0.00025 -0.00172 0.00034
401.08340 0.00074 0.00062 0.00248 0.00074 0.00062 0.00033
401.09187 -0.00074 -0.00074 0.00148 -0.00025 0.00198 0.00034
401.10032 0.00149 0.00124 -0.00012 -0.00087 0.00012 0.00033
401.10877 0.00012 -0.00136 0.00000 -0.00148 0.00049 0.00034
401.11724 -0.00136 -0.00111 0.00037 -0.00198 -0.00198 0.00034
401.12569 0.00099 0.00075 0.00161 0.00236 0.00112 0.00034
401.13415 0.00025 0.00049 0.00000 0.00099 0.00161 0.00033
401.14261 0.00099 0.00037 -0.00086 0.00012 -0.00025 0.00033
401.15107 0.00161 0.00050 0.00087 0.00124 0.00149 0.00034
401.15952 -0.00086 0.00086 -0.00123 0.00037 -0.00136 0.00032
401.16799 -0.00123 0.00000 -0.00037 -0.00049 -0.00062 0.00033
401.17644 0.00098 0.00000 0.00110 0.00049 0.00025 0.00032
401.18490 -0.00049 0.00012 0.00086 -0.00074 0.00012 0.00033
401.19336 -0.00037 -0.00049 0.00122 -0.00012 0.00000 0.00031
401.20182 0.00235 0.00099 0.00259 0.00259 0.00185 0.00031
401.21027 0.00147 -0.00012 0.00037 0.00025 0.00049 0.00033
401.21874 -0.00074 -0.00062 -0.00099 -0.00185 -0.00161 0.00032
401.22719 0.00086 0.00062 0.00037 0.00111 0.00000 0.00033
401.23565 0.00037 0.00123 0.00062 -0.00123 0.00012 0.00032
401.24411 0.00025 0.00037 0.00049 -0.00111 -0.00037 0.00029
401.25257 0.00160 -0.00049 0.00136 -0.00037 -0.00062 0.00030
401.26102 0.00074 -0.00049 -0.00160 -0.00123 -0.00074 0.00030
401.26945 0.00098 -0.00012 0.00098 -0.00037 -0.00098 0.00030
401.27791 -0.00037 0.00000 -0.00037 0.00124 0.00037 0.00030
401.28636 -0.00098 -0.00220 -0.00110 -0.00073 -0.00159 0.00031
401.29483 0.00049 0.00161 0.00074 0.00000 0.00049 0.00029
401.30328 -0.00012 0.00111 -0.00012 -0.00074 -0.00148 0.00030
401.31174 -0.00147 0.00025 -0.00110 -0.00049 -0.00147 0.00028
401.32020 0.00061 -0.00061 -0.00086 -0.00110 0.00025 0.00027
401.32866 -0.00037 0.00099 0.00000 0.00049 -0.00037 0.00029
401.33708 0.00246 0.00148 0.00098 0.00357 0.00172 0.00028
401.34555 -0.00049 -0.00037 -0.00185 -0.00012 -0.00111 0.00028
401.35400 0.00049 0.00000 -0.00062 -0.00086 -0.00086 0.00028
401.36246 -0.00037 0.00049 -0.00098 0.00110 -0.00025 0.00030
401.37092 -0.00049 -0.00049 -0.00049 -0.00183 -0.00171 0.00028
401.37938 -0.00049 0.00061 0.00037 -0.00122 -0.00024 0.00028
401.38780 0.00012 -0.00122 -0.00049 -0.00085 0.00073 0.00029
401.39627 -0.00085 -0.00085 -0.00037 -0.00037 -0.00256 0.00026
401.40472 0.00242 0.00157 0.00182 0.00206 0.00109 0.00027
401.41318 0.00000 0.00098 0.00110 0.00049 -0.00012 0.00028
401.42164 -0.00169 -0.00048 -0.00133 0.00000 -0.00024 0.00031
401.43006 0.00171 0.00330 0.00098 0.00061 0.00183 0.00029
401.43852 0.00061 0.00097 0.00122 -0.00037 0.00012 0.00029
401.44697 0.00183 0.00049 0.00098 0.00024 0.00086 0.00028
401.45544 -0.00122 -0.00049 -0.00012 0.00000 -0.00061 0.00027
401.46386 0.00086 0.00221 0.00172 0.00049 0.00110 0.00027
401.47232 0.00061 0.00159 0.00134 0.00012 0.00000 0.00026
401.48078 0.00012 -0.00123 -0.00098 -0.00049 -0.00086 0.00028
401.48924 0.00049 0.00184 0.00160 0.00074 0.00012 0.00027
401.49766 0.00123 0.00012 -0.00062 -0.00012 -0.00012 0.00027
401.50613 0.00173 0.00062 0.00025 -0.00074 -0.00049 0.00028
401.51458 -0.00147 0.00012 -0.00086 0.00086 0.00012 0.00026
401.52301 0.00222 0.00209 0.00259 0.00222 0.00259 0.00028
401.53147 0.00148 0.00098 0.00135 0.00148 0.00098 0.00028
401.53993 0.00110 0.00012 0.00086 0.00000 0.00000 0.00025
401.54838 0.00073 0.00024 0.00049 0.00098 -0.00049 0.00027
401.55682 -0.00025 0.00061 0.00025 0.00147 -0.00025 0.00027
401.56527 0.00024 -0.00073 0.00000 0.00037 -0.00146 0.00027
401.57373 -0.00061 0.00024 0.00122 0.00024 0.00024 0.00024
401.58216 0.00208 0.00000 0.00073 0.00049 -0.00024 0.00028
401.59061 0.00012 -0.00097 -0.00085 -0.00158 -0.00122 0.00027
401.59904 -0.00135 -0.00098 -0.00086 -0.00147 -0.00086 0.00025
401.60750 0.00037 0.00183 0.00134 0.00000 0.00012 0.00027
401.61596 0.00196 0.00159 0.00024 -0.00037 0.00037 0.00027
401.62438 -0.00085 -0.00110 -0.00037 0.00000 -0.00183 0.00027
401.63285 0.00123 0.00012 0.00135 -0.00012 0.00000 0.00026
401.64130 0.00220 0.00159 0.00122 0.00171 0.00110 0.00027
401.64973 0.00012 -0.00159 0.00012 -0.00061 -0.00171 0.00026
401.65818 0.00085 -0.00012 -0.00195 -0.00122 -0.00061 0.00026
401.66662 0.00012 0.00000 -0.00024 -0.00061 -0.00012 0.00027
401.67507 -0.00025 0.00025 0.00098 -0.00086 0.00025 0.00025
401.68350 0.00122 -0.00049 0.00061 -0.00037 0.00073 0.00024
401.69196 -0.00209 -0.00012 -0.00074 -0.00049 0.00000 0.00026
401.70042 -0.00024 0.00170 0.00037 0.00134 0.00073 0.00027
401.70884 0.00172 0.00049 0.00012 0.00000 0.00061 0.00026
401.71731 0.00208 -0.00024 0.00147 0.00220 0.00122 0.00026
401.72573 -0.00061 0.00061 -0.00111 -0.00086 -0.00147 0.00026
401.73418 0.00000 0.00000 0.00098 0.00012 0.00037 0.00028
401.74262 0.00061 0.00000 0.00025 -0.00012 -0.00012 0.00027
401.75107 0.00000 0.00025 0.00025 0.00000 -0.00037 0.00027
401.75950 -0.00111 -0.00061 0.00012 -0.00135 0.00000 0.00025
401.76796 0.00099 0.00161 0.00111 0.00074 0.00124 0.00027
401.77639 0.00170 0.00183 0.00134 0.00122 0.00122 0.00026
401.78484 -0.00110 -0.00061 0.00086 -0.00098 -0.00209 0.00026
401.79327 -0.00049 -0.00062 -0.00012 0.00086 -0.00025 0.00026
401.80173 0.00098 0.00209 0.00196 0.00147 0.00025 0.00028
401.81016 0.00123 -0.00037 0.00049 0.00110 -0.00123 0.00025
401.81861 0.00074 -0.00111 0.00098 0.00025 -0.00123 0.00027
401.82705 0.00110 -0.00123 -0.00049 0.00110 -0.00037 0.00026
401.83547 0.00271 0.00123 -0.00062 0.00062 0.00012 0.00024
401.84393 0.00025 0.00012 0.00098 0.00049 0.00012 0.00025
401.85236 0.00025 0.00086 0.00049 0.00147 0.00012 0.00025
401.86082 0.00086 -0.00172 0.00049 0.00025 -0.00111 0.00026
401.86924 -0.00012 -0.00099 -0.00062 -0.00062 -0.00012 0.00025
401.87771 -0.00024 0.00122 0.00110 0.00073 -0.00073 0.00026
401.88613 0.00148 -0.00012 -0.00012 -0.00111 0.00062 0.00026
401.89455 0.00172 0.00098 0.00135 0.00147 0.00196 0.00025
401.90301 0.00000 -0.00086 -0.00049 0.00073 0.00049 0.00025
401.91144 -0.00074 -0.00110 -0.00110 -0.00110 -0.00012 0.00026
401.91987 0.00037 0.00208 -0.00074 0.00049 0.00000 0.00027
401.92832 0.00159 0.00024 0.00195 0.00171 0.00073 0.00026
401.93676 0.00000 -0.00025 -0.00098 0.00062 -0.00135 0.00026
401.94521 -0.00085 0.00012 0.00049 -0.00037 -0.00049 0.00025
401.95364 0.00024 -0.00061 0.00049 0.00024 -0.00097 0.00025
401.96207 0.00012 0.00098 -0.00049 0.00086 -0.00012 0.00025
401.97053 0.00073 -0.00122 0.00085 0.00012 0.00049 0.00025
401.97895 0.00061 0.00049 0.00061 0.00183 0.00012 0.00023
401.98738 0.00122 -0.00073 0.00061 0.00049 0.00085 0.00026
401.99584 0.00061 -0.00086 -0.00122 -0.00037 -0.00086 0.00026
402.00427 -0.00037 -0.00171 -0.00244 -0.00098 -0.00122 0.00024
402.01269 -0.00061 0.00049 -0.00061 -0.00110 0.00085 0.00024
402.02113 0.00037 -0.00024 -0.00012 0.00012 -0.00024 0.00024
402.02958 0.00036 0.00109 0.00230 0.00073 -0.00012 0.00023
402.03801 0.00073 0.00135 0.00122 0.00024 -0.00024 0.00024
402.04644 -0.00073 0.00158 0.00049 0.00000 0.00037 0.00023
402.05489 0.00159 -0.00012 -0.00037 -0.00024 0.00085 0.00024
402.06332 0.00086 0.00098 -0.00012 0.00000 -0.00024 0.00023
402.07174 0.00159 0.00110 0.00024 0.00049 0.00049 0.00024
402.08018 0.00123 0.00012 -0.00049 0.00172 0.00012 0.00025
402.08860 0.00110 0.00037 0.00073 0.00024 -0.00183 0.00024
402.09706 0.00049 -0.00110 -0.00049 -0.00196 -0.00184 0.00025
402.10549 -0.00086 0.00110 0.00159 0.00135 0.00037 0.00023
402.11392 0.00037 -0.00074 0.00012 -0.00074 -0.00123 0.00023
402.12234 -0.00122 -0.00036 0.00073 -0.00061 -0.00122 0.00023
402.13081 0.00244 0.00098 0.00147 0.00159 0.00086 0.00024
402.13923 -0.00110 0.00110 0.00122 -0.00098 0.00098 0.00024
402.14766 -0.00049 0.00012 0.00036 0.00073 0.00024 0.00024
402.15608 -0.00147 0.00110 0.00012 -0.00049 0.00000 0.00025
402.16452 0.00158 0.00036 0.00182 0.00170 0.00219 0.00025
402.17294 0.00000 0.00024 -0.00061 -0.00134 0.00024 0.00025
402.18140 -0.00061 -0.00232 -0.00159 -0.00086 -0.00134 0.00024
402.18983 -0.00073 0.00147 -0.00037 0.00061 -0.00098 0.00023
402.19825 0.00037 -0.00024 0.00049 0.00085 0.00024 0.00025
402.20668 0.00183 0.00073 -0.00049 0.00049 -0.00024 0.00025
402.21510 0.00122 -0.00061 0.00061 0.00000 0.00134 0.00022
402.22354 0.00000 0.00012 0.00049 -0.00025 -0.00074 0.00022
402.23196 0.00147 0.00110 0.00123 0.00172 0.00123 0.00024
402.24039 0.00025 -0.00049 -0.00086 0.00000 0.00037 0.00024
402.24885 0.00098 0.00025 -0.00049 0.00000 0.00098 0.00024
402.25728 0.00171 0.00110 -0.00061 0.00037 0.00012 0.00023
402.26570 -0.00012 -0.00086 -0.00073 -0.00061 -0.00037 0.00023
402.27414 0.00012 0.00012 0.00197 0.00123 0.00111 0.00022
402.28256 -0.00061 0.00098 0.00159 0.00171 0.00110 0.00023
402.29099 0.00123 0.00123 0.00012 -0.00037 -0.00037 0.00022
402.29941 -0.00049 -0.00037 0.00086 -0.00086 0.00012 0.00021
402.30785 0.00012 0.00087 0.00136 0.00012 -0.00099 0.00024
402.31627 0.00012 -0.00062 -0.00111 -0.00185 -0.00062 0.00023
402.32470 0.00235 0.00037 0.00074 0.00223 0.00235 0.00023
402.33313 -0.00160 -0.00111 0.00049 -0.00111 -0.00025 0.00023
402.34156 0.00000 0.00087 0.00012 0.00074 0.00050 0.00022
402.34998 0.00037 -0.00111 -0.00012 0.00099 -0.00259 0.00024
402.35840 -0.00049 -0.00136 0.00037 0.00062 -0.00111 0.00023
402.36684 0.00136 -0.00112 0.00025 0.00000 -0.00074 0.00021
402.37526 0.00049 -0.00086 -0.00012 -0.00049 -0.00049 0.00023
402.38369 0.00124 -0.00062 -0.00062 0.00074 0.00037 0.00022
402.39212 0.00074 0.00037 0.00074 0.00049 -0.00012 0.00023
402.40055 0.00087 0.00037 0.00161 0.00223 0.00062 0.00024
402.40897 -0.00062 -0.00271 -0.00271 -0.00173 -0.00197 0.00023
402.41740 -0.00245 -0.00159 -0.00233 -0.00147 -0.00135 0.00023
402.42583 0.00000 -0.00124 -0.00111 -0.00012 -0.00186 0.00023
402.43426 -0.00049 0.00135 0.00098 -0.00025 0.00148 0.00021
402.44268 0.00062 0.00161 0.00025 -0.00049 -0.00025 0.00023
402.45112 0.00136 0.00173 0.00247 0.00197 -0.00099 0.00021
402.45954 0.00086 0.00061 0.00037 0.00037 0.00098 0.00023
402.46797 0.00074 0.00049 0.00012 -0.00037 -0.00037 0.00024
402.47639 0.00012 -0.00123 0.00000 0.00025 0.00037 0.00021
402.48483 0.00025 0.00012 0.00012 -0.00012 -0.00025 0.00023
402.49322 0.00012 0.00086 0.00123 0.00025 0.00147 0.00022
402.50165 0.00236 0.00149 0.00087 0.00124 0.00037 0.00033
402.51007 0.00074 0.00012 -0.00062 0.00099 -0.00099 0.00022
402.51850 -0.00074 -0.00223 0.00037 -0.00186 -0.00050 0.00023
402.52693 0.00259 0.00197 0.00283 0.00209 0.00172 0.00023
402.53535 0.00037 -0.00074 -0.00025 0.00050 -0.00025 0.00022
402.54379 0.00112 -0.00062 0.00025 0.00087 0.00037 0.00023
402.55221 -0.00037 0.00136 0.00012 0.00173 0.00000 0.00022
402.56061 -0.00062 0.00000 0.00086 -0.00025 -0.00049 0.00022
402.56903 0.00258 0.00012 0.00135 -0.00025 -0.00074 0.00023
402.57747 0.00012 0.00000 0.00012 0.00012 0.00012 0.00022
402.58589 0.00111 0.00037 0.00037 0.00012 0.00049 0.00022
402.59432 0.00012 -0.00074 -0.00098 0.00098 -0.00123 0.00022
402.60272 0.00209 0.00025 0.00012 -0.00012 0.00074 0.00024
402.61115 -0.00012 0.00025 0.00012 0.00049 0.00000 0.00021
402.61957 0.00012 0.00111 -0.00025 -0.00123 0.00000 0.00024
402.62800 0.00049 0.00159 0.00086 0.00073 0.00147 0.00022
402.63643 0.00111 0.00160 0.00135 0.00184 0.00012 0.00022
402.64483 -0.00012 0.00110 0.00012 0.00073 0.00037 0.00020
402.65325 0.00173 0.00160 0.00111 0.00099 0.00062 0.00021
402.66168 0.00123 0.00110 0.00147 0.00110 0.00159 0.00023
402.67011 0.00098 -0.00062 0.00074 0.00012 0.00049 0.00022
402.67850 0.00135 0.00123 0.00209 0.00111 0.00061 0.00021
402.68693 0.00074 -0.00025 0.00025 0.00086 -0.00025 0.00020
402.69536 -0.00049 0.00000 -0.00110 0.00049 -0.00196 0.00020
402.70379 0.00098 0.00025 0.00147 0.00037 -0.00061 0.00021
402.71218 -0.00062 -0.00086 -0.00247 -0.00074 -0.00173 0.00021
402.72061 0.00037 -0.00111 -0.00049 0.00000 -0.00049 0.00021
402.72904 0.00061 -0.00098 0.00012 -0.00086 -0.00025 0.00021
402.73744 0.00111 0.00037 0.00012 0.00086 -0.00111 0.00022
402.74586 0.00061 0.00098 -0.00012 0.00221 0.00074 0.00022
402.75429 0.00073 0.00122 0.00073 0.00061 0.00135 0.00022
402.76269 -0.00025 -0.00062 -0.00099 0.00012 -0.00062 0.00021
402.77112 -0.00049 0.00111 -0.00037 0.00049 0.00061 0.00021
402.77954 -0.00037 -0.00037 0.00025 -0.00123 -0.00184 0.00023
402.78794 0.00012 -0.00037 -0.00062 0.00012 -0.00037 0.00021
402.79637 -0.00012 0.00160 0.00049 0.00037 0.00000 0.00020
402.80480 0.00098 0.00025 0.00098 0.00000 0.00000 0.00022
402.81319 -0.00012 0.00061 0.00122 0.00000 -0.00098 0.00021
402.82162 -0.00135 -0.00086 -0.00012 0.00012 -0.00099 0.00022
402.83005 0.00024 0.00061 -0.00037 -0.00073 -0.00037 0.00021
402.83844 0.00098 0.00135 0.00184 0.00221 0.00184 0.00022
402.84687 0.00110 0.00086 0.00061 0.00110 0.00122 0.00021
402.85527 -0.00148 -0.00148 -0.00185 -0.00333 -0.00062 0.00020
402.86370 -0.00062 -0.00049 -0.00025 -0.00086 -0.00086 0.00022
402.87212 0.00124 -0.00111 0.00186 -0.00148 -0.00099 0.00022
402.88052 -0.00049 -0.00012 0.00000 0.00049 0.00049 0.00020
402.88895 0.00074 0.00185 0.00037 0.00025 -0.00123 0.00022
402.89735 0.00000 -0.00012 -0.00062 -0.00074 -0.00161 0.00022
402.90577 0.00000 0.00160 0.00209 0.00160 0.00196 0.00019
402.91417 0.00136 -0.00123 -0.00086 -0.00136 -0.00099 0.00021
402.92260 0.00161 0.00186 0.00050 0.00248 0.00099 0.00022
402.93100 -0.00037 -0.00012 0.00099 -0.00025 0.00086 0.00022
402.93942 0.00049 -0.00037 0.00025 0.00012 0.00037 0.00020
402.94786 0.00012 0.00111 -0.00012 0.00012 0.00037 0.00021
402.95625 -0.00098 -0.00086 -0.00147 -0.00135 0.00111 0.00020
402.96468 0.00160 -0.00012 0.00196 0.00049 0.00037 0.00020
402.97307 0.00049 -0.00074 0.00012 -0.00012 0.00160 0.00021
402.98150 -0.00086 0.00037 -0.00025 -0.00025 0.00037 0.00019
402.98990 -0.00050 -0.00037 0.00037 -0.00087 -0.00037 0.00020
402.99829 -0.00160 -0.00062 -0.00099 -0.00037 -0.00172 0.00019
403.00672 -0.00087 -0.00037 -0.00111 0.00000 0.00050 0.00020
403.01512 0.00000 -0.00037 -0.00012 -0.00037 -0.00037 0.00019
403.02355 -0.00049 -0.00037 -0.00099 -0.00111 -0.00136 0.00021
403.03194 0.00111 0.00000 0.00135 0.00111 -0.00123 0.00020
403.04037 -0.00025 0.00000 0.00074 -0.00099 -0.00049 0.00021
403.04877 0.00148 0.00148 0.00173 0.00222 0.00247 0.00019
403.05720 -0.00062 -0.00123 -0.00074 -0.00062 -0.00197 0.00020
403.06559 0.00174 0.00124 0.00136 0.00012 0.00261 0.00021
403.07399 0.00099 -0.00185 -0.00074 -0.00025 0.00025 0.00023
403.08242 -0.00086 0.00000 -0.00074 -0.00123 -0.00037 0.00020
403.09082 0.00160 -0.00037 0.00062 -0.00049 0.00012 0.00019
403.09924 0.00135 0.00012 0.00025 0.00147 0.00074 0.00018
403.10764 -0.00037 0.00122 -0.00122 0.00024 0.00037 0.00022
403.11604 0.00111 -0.00012 0.00086 -0.00074 0.00086 0.00019
403.12447 -0.00037 0.00049 0.00000 -0.00037 -0.00123 0.00020
403.13286 -0.00110 0.00012 0.00061 0.00037 0.00012 0.00020
403.14128 -0.00098 -0.00135 -0.00074 0.00012 -0.00037 0.00020
403.14969 0.00233 0.00098 -0.00012 0.00147 0.00123 0.00019
403.15808 0.00098 0.00098 0.00147 0.00074 0.00061 0.00019
403.16651 -0.00073 -0.00024 -0.00012 -0.00049 -0.00037 0.00018
403.17490 0.00369 0.00209 0.00184 0.00086 0.00160 0.00021
403.18331 0.00025 -0.00049 0.00159 0.00086 0.00000 0.00021
403.19173 0.00307 0.00086 0.00074 0.00184 0.00086 0.00018
403.20013 0.00061 0.00147 0.00037 -0.00037 -0.00171 0.00018
403.20852 -0.00086 -0.00222 -0.00111 -0.00123 -0.00197 0.00021
403.21693 0.00024 0.00049 -0.00012 0.00110 -0.00098 0.00020
403.22535 -0.00062 -0.00198 -0.00198 -0.00025 -0.00222 0.00021
403.23375 0.00074 0.00147 0.00061 0.00184 0.00123 0.00018
403.24214 -0.00086 0.00086 0.00074 -0.00221 0.00037 0.00019
403.25058 -0.00062 -0.00074 -0.00037 -0.00086 -0.00222 0.00020
403.25897 0.00049 -0.00012 0.00062 0.00111 0.00123 0.00021
403.26737 -0.00049 0.00074 0.00037 0.00000 -0.00074 0.00020
403.27576 -0.00074 -0.00160 0.00062 0.00074 -0.00037 0.00020
403.28416 0.00086 -0.00025 0.00086 0.00061 -0.00061 0.00018
403.29259 0.00062 -0.00173 -0.00099 -0.00173 0.00025 0.00019
403.30098 0.00037 -0.00012 0.00000 0.00086 0.00000 0.00019
403.30938 -0.00061 0.00025 0.00098 -0.00037 -0.00037 0.00020
403.31778 -0.00049 0.00025 0.00160 0.00123 0.00062 0.00021
403.32621 -0.00049 -0.00099 0.00062 0.00099 -0.00037 0.00020
403.33460 0.00025 -0.00062 0.00025 -0.00025 -0.00173 0.00020
403.34300 0.00049 0.00025 0.00025 0.00123 -0.00049 0.00018
403.35140 0.00062 -0.00124 0.00148 -0.00037 0.00000 0.00019
403.35980 0.00012 -0.00049 0.00025 0.00123 -0.00049 0.00021
403.36819 -0.00025 -0.00037 -0.00086 0.00062 0.00000 0.00019
403.37662 0.00012 -0.00037 -0.00012 0.00037 -0.00074 0.00020
403.38502 0.00161 0.00136 0.00012 0.00062 0.00037 0.00019
403.39342 -0.00012 0.00223 0.00111 0.00161 -0.00050 0.00020
403.40181 0.00037 -0.00062 0.00000 -0.00112 0.00050 0.00018
403.41021 -0.00050 0.00000 -0.00025 -0.00062 -0.00149 0.00019
403.41860 0.00260 0.00087 0.00161 -0.00012 0.00099 0.00020
403.42701 0.00037 0.00049 0.00148 0.00049 0.00000 0.00018
403.43543 0.00075 -0.00025 0.00050 -0.00075 0.00050 0.00020
403.44382 -0.00074 0.00074 -0.00050 0.00074 -0.00161 0.00019
403.45222 0.00099 -0.00012 0.00210 0.00062 0.00210 0.00019
403.46062 0.00000 -0.00062 -0.00012 0.00074 0.00000 0.00018
403.46902 0.00086 -0.00012 0.00086 0.00049 0.00086 0.00020
403.47741 0.00111 -0.00074 0.00012 0.00037 -0.00025 0.00018
403.48581 0.00161 -0.00198 0.00050 -0.00112 -0.00112 0.00020
403.49421 0.00086 0.00210 0.00074 0.00099 0.00037 0.00018
403.50261 0.00000 0.00136 -0.00012 0.00037 0.00049 0.00018
403.51100 -0.00012 0.00000 0.00025 -0.00136 -0.00074 0.00021
403.51940 0.00222 0.00062 0.00037 0.00086 0.00136 0.00017
403.52780 0.00087 -0.00062 0.00037 -0.00124 -0.00062 0.00016
403.53620 0.00012 -0.00185 -0.00037 -0.00025 0.00062 0.00019
403.54459 -0.00123 -0.00345 -0.00111 -0.00148 -0.00136 0.00020
403.55299 -0.00062 -0.00025 0.00087 -0.00062 0.00000 0.00021
403.56138 -0.00062 -0.00160 -0.00037 -0.00062 -0.00111 0.00017
403.56979 0.00037 0.00000 -0.00050 0.00050 -0.00012 0.00020
403.57818 -0.00012 -0.00137 -0.00112 -0.00037 -0.00124 0.00019
403.58658 0.00000 0.00099 0.00148 0.00111 0.00025 0.00019
403.59497 -0.00037 0.00012 0.00025 0.00087 -0.00025 0.00019
403.60337 -0.00074 -0.00025 0.00037 -0.00136 -0.00037 0.00019
403.61177 0.00160 0.00099 0.00160 0.00123 0.00049 0.00019
403.62016 0.00037 0.00012 -0.00124 -0.00111 -0.00050 0.00018
403.62856 0.00087 0.00062 0.00037 0.00211 0.00124 0.00019
403.63696 0.00000 0.00049 0.00000 -0.00099 0.00062 0.00019
403.64536 0.00099 0.00111 0.00099 0.00049 -0.00037 0.00019
403.65375 -0.00185 -0.00185 -0.00049 -0.00074 -0.00234 0.00018
403.66215 -0.00025 -0.00037 -0.00086 0.00049 0.00025 0.00019
403.67055 0.00049 0.00209 0.00000 0.00037 -0.00086 0.00017
403.67895 0.00123 0.00000 -0.00049 -0.00037 -0.00049 0.00019
403.68734 0.00307 0.00197 0.00074 0.00295 0.00221 0.00017
403.69571 -0.00024 -0.00037 0.00000 -0.00061 -0.00024 0.00019
403.70410 0.00123 0.00135 0.00111 0.00172 0.00012 0.00018
403.71251 -0.00037 0.00208 0.00147 0.00012 0.00000 0.00018
403.72090 0.00025 0.00000 -0.00148 -0.00049 -0.00062 0.00019
403.72930 0.00061 -0.00061 0.00208 -0.00086 -0.00024 0.00017
403.73769 0.00061 0.00000 0.00147 -0.00037 0.00024 0.00018
403.74610 -0.00012 0.00086 0.00086 -0.00099 0.00025 0.00018
403.75446 0.00135 0.00086 0.00062 0.00185 0.00074 0.00018
403.76285 -0.00062 -0.00037 -0.00062 -0.00111 0.00086 0.00018
403.77125 0.00087 0.00062 -0.00025 0.00099 0.00012 0.00018
403.77964 0.00298 0.00050 0.00124 0.00124 0.00050 0.00019
403.78805 -0.00074 -0.00297 -0.00260 -0.00099 -0.00173 0.00020
403.79644 0.00062 -0.00062 -0.00112 -0.00112 -0.00174 0.00017
403.80481 0.00173 0.00000 0.00186 0.00124 0.00099 0.00016
403.81320 0.00198 0.00062 0.00012 0.00025 0.00025 0.00017
403.82161 0.00025 0.00074 -0.00111 0.00062 -0.00148 0.00015
403.83000 -0.00012 0.00000 -0.00025 0.00111 -0.00037 0.00018
403.83837 0.00161 -0.00111 0.00099 0.00173 0.00185 0.00018
403.84676 0.00222 0.00160 0.00086 0.00049 0.00086 0.00017
403.85516 -0.00037 -0.00098 -0.00209 -0.00184 -0.00209 0.00017
403.86356 -0.00136 -0.00049 -0.00012 -0.00099 -0.00049 0.00017
403.87193 0.00222 0.00185 0.00062 0.00086 -0.00049 0.00017
403.88032 0.00025 0.00123 -0.00049 -0.00025 0.00062 0.00018
403.88872 -0.00012 -0.00184 -0.00098 -0.00110 -0.00110 0.00017
403.89712 0.00111 0.00185 0.00173 0.00037 0.00148 0.00016
403.90548 0.00086 0.00173 0.00086 0.00062 0.00160 0.00016
403.91388 -0.00062 -0.00025 0.00025 -0.00148 -0.00136 0.00016
403.92227 0.00098 0.00061 0.00074 0.00012 0.00123 0.00016
403.93064 -0.00135 -0.00025 -0.00111 -0.00111 -0.00074 0.00018
403.93904 0.00049 -0.00062 0.00037 -0.00049 -0.00086 0.00017
403.94744 0.00111 0.00197 0.00062 0.00000 0.00136 0.00018
403.95583 -0.00222 0.00037 -0.00074 -0.00222 -0.00198 0.00017
403.96420 -0.00037 -0.00037 0.00012 -0.00025 -0.00012 0.00018
403.97260 0.00075 0.00286 0.00075 -0.00012 0.00162 0.00018
403.98097 0.00099 0.00000 0.00049 -0.00074 -0.00012 0.00016
403.98936 -0.00049 0.00012 0.00012 0.00074 0.00012 0.00018
403.99776 0.00050 0.00099 0.00000 0.00037 0.00050 0.00018
404.00612 -0.00087 0.00111 0.00062 -0.00037 0.00025 0.00017
404.01453 0.00198 0.00111 0.00000 0.00000 0.00086 0.00016
404.02292 0.00050 0.00050 0.00087 -0.00087 -0.00037 0.00017
404.03129 0.00086 -0.00062 0.00012 -0.00086 -0.00160 0.00017
404.03968 0.00112 0.00112 0.00025 0.00075 0.00025 0.00017
404.04805 0.00099 0.00012 -0.00025 0.00037 -0.00062 0.00016
404.05645 0.00149 0.00223 0.00198 0.00087 0.00087 0.00015
404.06484 -0.00211 -0.00161 -0.00161 -0.00186 -0.00310 0.00016
404.07321 -0.00050 -0.00100 -0.00075 -0.00162 -0.00050 0.00017
404.08160 -0.00062 0.00025 -0.00012 -0.00137 -0.00074 0.00018
404.08997 0.00174 0.00149 0.00162 0.00187 0.00037 0.00016
404.09837 0.00111 0.00012 0.00000 -0.00124 -0.00074 0.00017
404.10674 0.00162 -0.00162 0.00037 0.00100 -0.00087 0.00018
404.11513 -0.00062 0.00050 0.00062 -0.00012 0.00012 0.00017
404.12350 0.00050 0.00000 0.00074 0.00161 0.00037 0.00018
404.13190 -0.00063 -0.00063 -0.00050 -0.00125 -0.00125 0.00016
404.14027 0.00099 0.00037 0.00062 0.00074 0.00025 0.00017
404.14866 0.00186 -0.00037 0.00087 0.00025 -0.00037 0.00016
404.15703 0.00075 0.00037 0.00037 0.00012 -0.00087 0.00018
404.16542 0.00037 -0.00075 -0.00025 0.00025 0.00050 0.00017
404.17380 0.00049 0.00049 0.00111 -0.00062 -0.00074 0.00017
404.18219 -0.00099 -0.00037 0.00012 0.00000 -0.00037 0.00016
404.19056 0.00185 0.00037 0.00074 0.00111 0.00000 0.00018
404.19895 0.00050 0.00199 0.00187 0.00149 0.00187 0.00017
404.20732 0.00087 0.00025 0.00062 0.00074 0.00012 0.00018
404.21572 0.00124 0.00074 0.00086 0.00025 0.00049 0.00015
404.22408 0.00309 0.00235 0.00297 0.00334 0.00260 0.00017
404.23248 0.00062 0.00074 0.00037 0.00025 -0.00087 0.00015
404.24084 -0.00037 -0.00136 0.00111 0.00000 -0.00185 0.00016
404.24921 0.00025 0.00111 -0.00037 0.00025 0.00025 0.00018
404.25761 -0.00050 0.00173 0.00012 0.00087 0.00111 0.00018
404.26598 0.00062 0.00148 0.00037 0.00000 0.00037 0.00018
404.27437 -0.00049 0.00111 -0.00025 0.00172 0.00000 0.00015
404.28274 0.00037 -0.00061 -0.00111 -0.00147 -0.00049 0.00016
404.29110 0.00209 0.00185 0.00074 0.00111 0.00111 0.00016
404.29951 0.00136 0.00037 -0.00012 0.00037 -0.00012 0.00017
404.30787 -0.00110 -0.00086 -0.00123 -0.00098 0.00037 0.00017
404.31627 0.00000 -0.00037 0.00012 -0.00012 0.00049 0.00015
404.32463 -0.00111 -0.00111 -0.00160 -0.00197 -0.00221 0.00017
404.33300 0.00037 0.00062 0.00099 -0.00049 -0.00111 0.00016
404.34140 -0.00123 -0.00184 0.00160 -0.00135 -0.00049 0.00015
404.34977 0.00037 -0.00147 0.00000 -0.00098 -0.00012 0.00018
404.35813 0.00099 0.00087 0.00012 -0.00050 -0.00124 0.00016
404.36652 0.00074 0.00050 -0.00099 0.00000 -0.00136 0.00016
404.37489 -0.00135 -0.00061 -0.00148 -0.00258 -0.00172 0.00018
404.38326 0.00062 -0.00160 -0.00123 -0.00062 0.00037 0.00015
404.39166 0.00110 0.00086 0.00171 0.00073 0.00073 0.00015
404.40002 -0.00037 0.00000 -0.00012 -0.00012 -0.00062 0.00014
404.40839 0.00197 0.00062 -0.00037 -0.00074 -0.00074 0.00015
404.41675 0.00024 0.00086 0.00024 0.00061 -0.00147 0.00014
404.42516 0.00086 -0.00012 0.00098 0.00012 -0.00111 0.00014
404.43352 0.00221 0.00197 0.00086 0.00098 0.00074 0.00016
404.44189 0.00135 0.00000 0.00037 0.00000 0.00025 0.00015
404.45025 0.00086 0.00000 0.00049 0.00073 0.00073 0.00014
404.45865 -0.00135 -0.00196 -0.00184 -0.00270 -0.00319 0.00015
404.46702 0.00012 0.00074 -0.00037 -0.00111 -0.00037 0.00014
404.47539 0.00025 0.00110 0.00098 0.00074 0.00086 0.00017
404.48375 0.00110 0.00037 0.00086 0.00147 0.00037 0.00015
404.49215 0.00099 -0.00025 -0.00049 -0.00025 0.00074 0.00016
404.50051 0.00309 0.00074 0.00111 0.00062 0.00173 0.00015
404.50889 0.00049 0.00037 0.00049 0.00197 0.00037 0.00016
404.51725 -0.00074 -0.00049 0.00012 -0.00061 0.00012 0.00015
404.52561 0.00161 0.00049 -0.00012 0.00012 0.00025 0.00016
404.53401 -0.00087 -0.00173 -0.00062 0.00037 -0.00111 0.00015
404.54237 0.00037 -0.00012 0.00012 -0.00037 0.00025 0.00016
404.55074 -0.00123 -0.00049 -0.00025 0.00025 -0.00098 0.00016
404.55911 -0.00025 0.00025 -0.00111 -0.00099 -0.00062 0.00015
404.56748 -0.00073 0.00000 -0.00073 -0.00037 -0.00110 0.00015
404.57584 0.00025 -0.00050 0.00025 0.00012 -0.00136 0.00015
404.58421 -0.00086 0.00061 0.00012 -0.00074 0.00000 0.00015
404.59260 0.00012 -0.00074 -0.00025 -0.00112 -0.00161 0.00016
404.60098 0.00210 0.00111 -0.00049 0.00136 0.00086 0.00015
404.60934 -0.00049 0.00087 0.00161 -0.00124 0.00148 0.00016
404.61771 -0.00025 -0.00136 -0.00185 -0.00223 -0.00161 0.00017
404.62607 -0.00185 -0.00123 -0.00111 -0.00284 -0.00358 0.00016
404.63444 0.00074 -0.00049 0.00037 -0.00098 -0.00062 0.00016
404.64281 0.00198 -0.00297 -0.00124 -0.00112 -0.00136 0.00016
404.65118 0.00123 0.00025 -0.00061 0.00098 -0.00012 0.00015
404.65954 -0.00012 -0.00074 0.00086 0.00000 0.00012 0.00014
404.66791 0.00049 -0.00037 0.00136 -0.00049 -0.00062 0.00014
404.67627 0.00000 -0.00135 -0.00123 0.00111 -0.00123 0.00014
404.68463 0.00099 0.00012 0.00037 0.00000 0.00049 0.00015
404.69304 -0.00012 0.00012 0.00074 -0.00012 -0.00062 0.00013
404.70140 -0.00025 0.00061 -0.00196 -0.00123 -0.00061 0.00014
404.70977 0.00086 -0.00037 -0.00037 -0.00037 -0.00037 0.00015
404.71813 0.00197 0.00135 0.00123 -0.00025 -0.00061 0.00016
404.72650 -0.00037 -0.00123 0.00025 -0.00074 -0.00160 0.00013
404.73487 0.00147 0.00098 0.00025 0.00037 -0.00147 0.00015
404.74324 0.00000 -0.00184 -0.00196 -0.00245 -0.00196 0.00014
404.75160 -0.00024 -0.00134 0.00073 -0.00012 -0.00049 0.00015
404.75997 -0.00049 0.00086 -0.00037 -0.00074 0.00037 0.00015
404.76833 0.00184 0.00049 0.00184 0.00073 0.00098 0.00014
404.77671 -0.00184 -0.00123 0.00074 -0.00123 -0.00025 0.00013
404.78507 -0.00025 0.00098 -0.00061 0.00135 0.00074 0.00015
404.79341 0.00012 0.00098 0.00086 0.00123 -0.00086 0.00015
404.80177 0.00037 -0.00012 0.00012 -0.00025 -0.00025 0.00014
404.81014 0.00025 0.00074 -0.00136 -0.00086 -0.00025 0.00015
404.81850 0.00123 -0.00037 0.00098 -0.00037 -0.00012 0.00014
404.82687 -0.00074 0.00000 0.00184 0.00098 0.00037 0.00015
404.83524 0.00099 -0.00160 -0.00111 0.00049 -0.00123 0.00013
404.84360 -0.00172 0.00025 -0.00098 -0.00062 -0.00037 0.00015
404.85197 -0.00061 -0.00147 -0.00098 -0.00147 0.00037 0.00012
404.86033 0.00158 0.00085 0.00012 0.00085 0.00122 0.00014
404.86870 0.00086 0.00171 0.00122 -0.00037 -0.00024 0.00013
404.87707 0.00122 0.00146 0.00049 0.00061 0.00024 0.00015
404.88544 0.00098 -0.00012 0.00074 -0.00135 -0.00086 0.00014
404.89377 0.00159 0.00122 0.00086 -0.00037 -0.00037 0.00013
404.90214 -0.00170 -0.00146 -0.00049 -0.00122 -0.00097 0.00014
404.91050 0.00146 0.00098 0.00110 0.00061 0.00134 0.00015
404.91887 -0.00233 -0.00025 -0.00110 -0.00110 -0.00123 0.00015
404.92724 -0.00073 -0.00170 0.00036 0.00097 0.00012 0.00014
404.93561 -0.00037 0.00049 -0.00134 -0.00098 -0.00134 0.00014
404.94394 0.00049 0.00085 0.00183 0.00049 0.00049 0.00012
404.95231 0.00195 -0.00049 0.00158 0.00219 0.00122 0.00013
404.96067 0.00135 -0.00037 0.00061 -0.00025 -0.00110 0.00014
404.96905 0.00012 -0.00098 -0.00061 -0.00134 -0.00146 0.00013
404.97741 0.00012 0.00061 0.00109 -0.00049 0.00170 0.00015
404.98574 -0.00037 0.00061 0.00000 -0.00024 0.00037 0.00014
404.99411 -0.00012 0.00134 0.00037 -0.00012 -0.00110 0.00014
405.00247 0.00184 0.00160 0.00123 0.00025 0.00025 0.00014
405.01084 0.00085 -0.00170 -0.00085 -0.00085 -0.00146 0.00015
405.01921 0.00000 -0.00024 -0.00097 0.00024 -0.00073 0.00015
405.02755 0.00208 0.00110 0.00122 0.00122 0.00000 0.00012
405.03591 -0.00073 -0.00061 0.00061 0.00000 0.00012 0.00013
405.04428 0.00122 0.00085 0.00037 0.00146 0.00158 0.00014
405.05264 -0.00073 0.00049 -0.00159 -0.00183 -0.00098 0.00014
405.06098 -0.00085 -0.00134 0.00073 -0.00122 -0.00122 0.00014
405.06935 0.00048 0.00012 -0.00036 -0.00024 -0.00012 0.00014
405.07772 0.00048 0.00121 0.00061 0.00145 0.00061 0.00012
405.08605 -0.00073 0.00073 -0.00049 0.00049 0.00061 0.00014
405.09442 0.00219 0.00134 0.00158 0.00037 0.00110 0.00015
405.10278 -0.00012 0.00085 0.00036 -0.00024 -0.00109 0.00015
405.11112 0.00048 0.00097 0.00024 0.00048 0.00024 0.00014
405.11949 -0.00194 -0.00230 -0.00243 -0.00097 -0.00133 0.00014
405.12786 0.00037 0.00073 0.00000 0.00208 0.00037 0.00015
405.13619 -0.00037 -0.00073 -0.00085 -0.00195 0.00000 0.00014
405.14455 0.00171 0.00171 0.00049 0.00073 0.00098 0.00014
405.15292 0.00000 -0.00110 -0.00061 -0.00122 -0.00085 0.00013
405.16125 0.00085 -0.00219 0.00024 -0.00122 -0.00122 0.00012
405.16963 0.00098 0.00232 -0.00037 0.00147 0.00024 0.00014
405.17799 -0.00037 -0.00098 -0.00049 -0.00098 -0.00037 0.00013
405.18633 -0.00037 -0.00049 -0.00073 -0.00134 -0.00134 0.00013
405.19469 -0.00085 -0.00012 -0.00061 -0.00012 -0.00146 0.00013
405.20303 0.00208 0.00098 0.00196 0.00245 0.00024 0.00014
405.21139 0.00097 0.00049 0.00024 -0.00085 -0.00073 0.00012
405.21977 0.00171 0.00012 0.00000 -0.00085 0.00085 0.00014
405.22810 0.00086 0.00061 0.00282 0.00245 -0.00074 0.00012
405.23647 0.00134 0.00097 0.00183 0.00219 0.00110 0.00013
405.24480 0.00000 -0.00024 0.00037 -0.00012 0.00049 0.00015
405.25317 -0.00049 0.00000 -0.00073 0.00073 -0.00061 0.00013
405.26153 0.00074 0.00025 -0.00061 0.00012 -0.00074 0.00014
405.26987 0.00183 0.00244 0.00244 0.00085 0.00305 0.00014
405.27824 0.00086 0.00184 0.00135 0.00147 0.00147 0.00013
405.28657 0.00147 0.00012 0.00000 -0.00012 0.00024 0.00012
405.29494 -0.00074 -0.00110 -0.00037 -0.00147 -0.00061 0.00012
405.30327 -0.00135 -0.00061 -0.00123 -0.00074 -0.00061 0.00016
405.31164 -0.00037 -0.00122 -0.00061 -0.00147 0.00037 0.00013
405.31997 -0.00135 -0.00049 -0.00196 -0.00049 -0.00037 0.00013
405.32835 -0.00110 -0.00012 -0.00195 -0.00146 -0.00122 0.00012
405.33668 -0.00135 -0.00012 -0.00025 0.00012 -0.00172 0.00014
405.34505 0.00086 -0.00122 -0.00037 -0.00049 0.00000 0.00012
405.35338 -0.00049 -0.00073 -0.00134 -0.00049 0.00049 0.00012
405.36175 0.00024 -0.00024 0.00000 -0.00061 -0.00110 0.00013
405.37008 -0.00061 -0.00086 0.00110 -0.00159 0.00024 0.00012
405.37845 0.00049 0.00085 0.00207 0.00170 0.00134 0.00015
405.38679 0.00086 0.00098 0.00073 0.00061 0.00024 0.00012
405.39513 0.00073 -0.00098 0.00037 0.00024 -0.00098 0.00014
405.40349 0.00024 0.00012 0.00073 0.00086 0.00024 0.00012
405.41183 0.00012 -0.00146 -0.00037 -0.00012 -0.00110 0.00014
405.42019 -0.00012 0.00085 -0.00036 -0.00024 0.00097 0.00013
405.42853 -0.00037 -0.00049 -0.00110 0.00024 -0.00012 0.00012
405.43687 0.00122 -0.00012 0.00049 -0.00049 -0.00024 0.00011
405.44523 0.00049 -0.00012 0.00012 0.00134 -0.00012 0.00013
405.45357 0.00086 0.00037 0.00159 -0.00037 0.00037 0.00011
405.46193 -0.00061 -0.00134 -0.00109 -0.00158 -0.00134 0.00012
405.47027 0.00110 -0.00012 0.00037 0.00061 -0.00012 0.00013
405.47860 0.00122 0.00183 0.00244 0.00134 0.00049 0.00012
405.48697 -0.00182 -0.00267 -0.00231 -0.00207 -0.00231 0.00011
405.49531 -0.00037 -0.00074 -0.00012 -0.00086 -0.00172 0.00013
405.50365 0.00000 -0.00122 0.00073 -0.00024 -0.00183 0.00011
405.51201 0.00037 -0.00012 -0.00037 -0.00049 0.00000 0.00020
405.52035 0.00061 -0.00049 0.00086 0.00049 0.00037 0.00031
405.52868 -0.00086 -0.00098 -0.00098 -0.00208 -0.00159 0.00016
405.53705 -0.00197 -0.00111 -0.00221 -0.00012 -0.00025 0.00013
405.54538 0.00000 0.00061 -0.00086 -0.00160 -0.00049 0.00012
405.55373 0.00257 0.00147 0.00061 0.00135 0.00073 0.00012
405.56209 0.00159 0.00061 0.00135 -0.00012 0.00012 0.00010
405.57043 0.00135 -0.00025 -0.00012 -0.00037 0.00110 0.00007
405.57876 -0.00136 -0.00099 -0.00062 -0.00099 -0.00099 0.00013
405.58709 0.00000 0.00025 0.00152 0.00025 0.00114 0.00010
405.59546 0.00067 0.00080 0.00053 -0.00067 -0.00040 0.00013
