Date and Time:                Fri Sep 9 16:30:26.000 2022
Software Version:             4.31.30023.0
Temperature (C):              -40
Model:                        DU940P_BU2
Data Type:                    Counts
Acquisition Mode:             Single Scan
Trigger Mode:                 Internal
Exposure Time (secs):         0.1
Readout Mode:                 Full Vertical Binning
Horizontal binning:           1
Extended Dynamic Range:       off
Horizontally flipped:         false
Vertical Shift Speed (usecs): 14.51
Pixel Readout Rate (MHz):     3
Baseline Clamp:               ON
Clock Amplitude:              Normal
Output Amplifier:             High Capacity
Serial Number:                23634
Pre-Amplifier Gain:           1.000000
Spurious Noise Filter Mode:   No Filter
Photon counted:               false
Data Averaging Filter Mode:   No Filter
SR500i:
Serial Number:                
Wavelength (nm):              312
Grating Groove Density (l/mm):1199.47
Grating Blaze:                500
Output Flipper Port:          Direct
Accessory Output Port 1:      Off
Accessory Output Port 2:      Off
Accessory Output Port 3:      Off
Accessory Input Port:         On



290.52313	16167
290.54425	15383
290.56534	15322
290.58646	15465
290.60754	15629
290.62863	15756
290.64975	15663
290.67084	15696
290.69193	15680
290.71304	15720
290.73413	15657
290.75522	15550
290.77634	15654
290.79742	15747
290.81851	15945
290.83963	16051
290.86072	16192
290.88181	16361
290.90292	16532
290.92401	16411
290.9451	16347
290.96619	16437
290.9873	16390
291.00839	16328
291.02948	16185
291.05057	16054
291.07169	15922
291.09277	15816
291.11386	15782
291.13495	15911
291.15607	16020
291.17715	16017
291.19824	16024
291.21933	15947
291.24042	15732
291.26154	15787
291.28262	15880
291.30371	15981
291.3248	16105
291.34589	16109
291.36697	16035
291.38806	16015
291.40918	16019
291.43027	16030
291.45135	16004
291.47244	16079
291.49353	16081
291.51462	16066
291.53571	15991
291.55679	15998
291.57791	15953
291.599	15987
291.62009	15961
291.64117	15962
291.66226	15954
291.68335	15931
291.70444	15859
291.72552	15883
291.74661	15921
291.7677	15992
291.78879	16038
291.80988	16201
291.83096	16144
291.85205	16152
291.87314	16068
291.89423	16093
291.91531	16083
291.9364	15991
291.95749	15964
291.97858	15938
291.99966	15995
292.02075	15823
292.04184	15746
292.06293	15710
292.08401	15677
292.1051	15714
292.12619	15691
292.14725	15678
292.16833	15655
292.18942	15588
292.21051	15682
292.2316	15697
292.25269	15725
292.27377	15855
292.29486	15994
292.31595	15964
292.33701	15898
292.35809	15905
292.37918	15738
292.40027	15749
292.42136	15778
292.44244	15865
292.4635	15892
292.48459	15844
292.50568	15795
292.52676	15753
292.54785	15757
292.56891	15823
292.59	15915
292.61108	15963
292.63217	15972
292.65326	15956
292.67432	15926
292.6954	15994
292.71649	16008
292.73758	16066
292.75864	16272
292.77972	16355
292.80081	16310
292.82187	16288
292.84296	16396
292.86404	16470
292.8851	16482
292.90619	16461
292.92728	16475
292.94836	16407
292.96942	16381
292.99051	16355
293.01157	16406
293.03265	16389
293.05374	16285
293.0748	16203
293.09589	16117
293.11697	16216
293.13803	16239
293.15912	16335
293.18018	16369
293.20126	16238
293.22235	16307
293.24341	16391
293.2645	16417
293.28555	16437
293.30664	16578
293.32773	16611
293.34879	16533
293.36987	16515
293.39093	16449
293.41202	16551
293.43307	16609
293.45416	16456
293.47522	16393
293.49631	16454
293.51736	16585
293.53845	16623
293.55951	16638
293.5806	16618
293.60165	16754
293.62274	16637
293.6438	16510
293.66489	16479
293.68594	16482
293.707	16513
293.72809	16754
293.74915	16807
293.77023	16796
293.79129	16779
293.81238	16626
293.83344	16622
293.85449	16773
293.87558	16681
293.89664	16824
293.91769	16851
293.93878	16880
293.95984	16874
293.98093	17000
294.00198	17087
294.02304	17106
294.04413	17061
294.06519	17158
294.08624	17233
294.10733	17209
294.12839	17080
294.14944	17110
294.1705	17198
294.19159	17314
294.21265	17285
294.2337	17358
294.25479	17412
294.27585	17550
294.29691	17565
294.31796	17551
294.33905	17526
294.36011	17545
294.38116	17545
294.40222	17575
294.42328	17575
294.44437	17721
294.46542	17665
294.48648	17583
294.50754	17515
294.52859	17443
294.54968	17555
294.57074	17599
294.5918	17824
294.61285	17866
294.63391	17727
294.65497	17662
294.67606	17786
294.69711	17762
294.71817	17762
294.73923	17831
294.76028	17877
294.78134	17914
294.8024	17879
294.82346	17801
294.84451	17822
294.8656	17827
294.88666	17790
294.90771	17775
294.92877	17880
294.94983	18124
294.97089	18061
294.99194	18030
295.013	18010
295.03406	17926
295.05511	17847
295.07617	17640
295.09723	17579
295.11829	17524
295.13934	17491
295.1604	17599
295.18146	17622
295.20251	17700
295.22357	17743
295.24463	17697
295.26569	17628
295.28674	17652
295.3078	17683
295.32886	17784
295.34991	17948
295.37094	18111
295.392	18113
295.41306	18014
295.43411	18148
295.45517	18199
295.47623	18252
295.49728	18226
295.51834	18279
295.5394	18382
295.56042	18296
295.58148	18172
295.60254	18176
295.6236	18217
295.64465	18228
295.66571	18256
295.68677	18336
295.70779	18467
295.72885	18568
295.74991	18445
295.77097	18568
295.79202	18610
295.81305	18659
295.83411	18706
295.85516	18780
295.87622	18874
295.89725	18940
295.9183	18851
295.93936	18855
295.96042	18841
295.98145	18777
296.0025	18706
296.02356	18851
296.04459	18963
296.06564	18877
296.0867	18784
296.10776	18844
296.12878	18969
296.14984	18995
296.1709	18878
296.19193	18865
296.21298	18823
296.23404	18847
296.25507	18723
296.27612	18715
296.29715	18806
296.31821	18919
296.33926	19037
296.36029	19171
296.38135	19220
296.4024	19174
296.42343	19182
296.44449	18991
296.46552	18905
296.48657	18939
296.5076	18875
296.52866	18816
296.54971	18887
296.57074	18878
296.5918	18866
296.61282	19004
296.63388	19152
296.65491	19105
296.67596	19094
296.69699	18962
296.71805	18875
296.73907	18935
296.76013	18880
296.78116	18993
296.80222	19023
296.82324	18978
296.84427	18980
296.86533	18955
296.88635	19019
296.90741	19102
296.92844	19204
296.94949	19151
296.97052	19218
296.99155	19249
297.0126	19353
297.03363	19530
297.05469	19513
297.07571	19530
297.09674	19470
297.1178	19434
297.13882	19561
297.15988	19505
297.18091	19549
297.20193	19560
297.22299	19613
297.24402	19661
297.26505	19687
297.28607	19676
297.30713	19729
297.32816	19751
297.34918	19689
297.37024	19669
297.39127	19601
297.41229	19538
297.43335	19463
297.45438	19507
297.4754	19551
297.49643	19469
297.51749	19634
297.53851	19705
297.55954	19702
297.58057	19724
297.60159	19638
297.62265	19892
297.64368	19948
297.6647	20063
297.68573	20082
297.70676	20084
297.72781	20143
297.74884	20097
297.76987	19932
297.79089	19994
297.81192	19968
297.83295	20000
297.85397	19880
297.87503	19867
297.89606	19864
297.91708	19822
297.93811	19790
297.95914	19824
297.98016	19963
298.00119	20037
298.02222	20129
298.04324	20207
298.06427	20128
298.0853	20004
298.10632	19939
298.12738	20072
298.14841	20076
298.16943	20164
298.19046	20135
298.21149	20096
298.23251	20010
298.25354	19933
298.27457	20058
298.29559	20187
298.31662	20350
298.33765	20375
298.35867	20296
298.37967	20229
298.4007	20184
298.42172	20070
298.44275	20174
298.46378	20198
298.4848	20343
298.50583	20525
298.52686	20431
298.54788	20415
298.56891	20635
298.58994	20663
298.61096	20675
298.63196	20692
298.65298	20624
298.67401	20530
298.69504	20429
298.71606	20512
298.73709	20615
298.75812	20510
298.77911	20449
298.80014	20381
298.82117	20361
298.84219	20442
298.86322	20556
298.88422	20708
298.90524	20655
298.92627	20602
298.9473	20630
298.96832	20768
298.98932	20874
299.01035	20920
299.03137	20910
299.0524	20958
299.07339	21022
299.09442	20887
299.11545	20847
299.13647	20858
299.15747	20893
299.1785	20852
299.19952	20802
299.22052	20913
299.24155	20970
299.26257	21214
299.28357	21176
299.3046	21264
299.32562	21276
299.34662	21130
299.36765	20966
299.38867	20987
299.40967	21026
299.43069	21129
299.45169	21200
299.47272	21296
299.49374	21311
299.51474	21181
299.53577	21127
299.55676	21097
299.57779	21145
299.59879	21118
299.61981	21330
299.64084	21458
299.66183	21436
299.68286	21415
299.70386	21402
299.72488	21590
299.74588	21671
299.76691	21646
299.7879	21778
299.80893	21881
299.82993	21878
299.85095	21779
299.87195	21688
299.89297	21674
299.91397	21791
299.935	21780
299.95599	21864
299.97699	21912
299.99802	22206
300.01901	22282
300.04004	22285
300.06104	22281
300.08203	22259
300.10306	22222
300.12405	22145
300.14508	22221
300.16608	22317
300.18707	22400
300.2081	22337
300.2291	22228
300.25009	22219
300.27112	22181
300.29211	22322
300.31311	22473
300.33414	22426
300.35513	22268
300.37613	22248
300.39716	22393
300.41815	22408
300.43915	22409
300.46017	22498
300.48117	22422
300.50217	22505
300.52316	22302
300.54419	22190
300.56519	22251
300.58618	22237
300.60718	22405
300.6282	22379
300.6492	22526
300.6702	22615
300.69119	22512
300.71219	22540
300.73322	22434
300.75421	22412
300.77521	22314
300.7962	22137
300.8172	22034
300.8382	22001
300.85919	21859
300.88022	21950
300.90121	22173
300.92221	22302
300.94321	22227
300.9642	22064
300.9852	22191
301.0062	22151
301.02719	22150
301.04819	22408
301.06921	22466
301.09021	22743
301.11121	22800
301.1322	22600
301.1532	22698
301.17419	22735
301.19519	22826
301.21619	22740
301.23718	22770
301.25818	22797
301.27917	22818
301.30017	22699
301.32117	22579
301.34216	22541
301.36316	22431
301.38416	22534
301.40515	22847
301.42615	23049
301.44714	23156
301.46814	23104
301.48914	23014
301.5101	22894
301.5311	23029
301.55209	23126
301.57309	23340
301.59409	23541
301.61508	23643
301.63608	23538
301.65707	23523
301.67807	23514
301.69907	23423
301.72003	23449
301.74103	23512
301.76202	23570
301.78302	23475
301.80402	23376
301.82501	23383
301.84598	23281
301.86697	23333
301.88797	23341
301.90897	23345
301.92996	23330
301.95093	23277
301.97192	23294
301.99292	23227
302.01392	23366
302.03488	23451
302.05588	23534
302.07687	23496
302.09787	23688
302.11884	23576
302.13983	23699
302.16083	23594
302.18179	23426
302.20279	23293
302.22379	23319
302.24475	23315
302.26575	23268
302.28674	23020
302.30771	22855
302.3287	22963
302.3497	23031
302.37067	23011
302.39166	22987
302.41266	22893
302.43362	22941
302.45462	22972
302.47559	23090
302.49658	23300
302.51758	23551
302.53854	23598
302.55954	23432
302.58051	23465
302.6015	23417
302.62247	23320
302.64346	23356
302.66446	23408
302.68542	23446
302.70642	23490
302.72739	23432
302.74838	23315
302.76935	23202
302.79034	23280
302.81131	23301
302.83231	23598
302.85327	23837
302.87427	23834
302.89523	23512
302.9162	23438
302.93719	23493
302.95816	23513
302.97916	23446
303.00012	23599
303.02112	23832
303.04208	23840
303.06305	23807
303.08405	23653
303.10501	23557
303.12601	23661
303.14697	23669
303.16794	23617
303.18893	23579
303.2099	23656
303.23087	23493
303.25186	23550
303.27283	23667
303.29379	23553
303.31479	23651
303.33575	23699
303.35672	23736
303.37772	23732
303.39868	23631
303.41965	23757
303.44061	23880
303.46161	24011
303.48257	24065
303.50354	24123
303.52451	24248
303.5455	24211
303.56647	24260
303.58743	24285
303.6084	24207
303.62936	24152
303.65036	24061
303.67133	24137
303.69229	24255
303.71326	24317
303.73422	24403
303.75522	24538
303.77618	24480
303.79715	24388
303.81812	24413
303.83908	24453
303.86005	24512
303.88101	24499
303.90201	24620
303.92297	24690
303.94394	24645
303.9649	24630
303.98587	24596
304.00684	24915
304.0278	24997
304.04877	24987
304.06973	25051
304.0907	24999
304.11166	24983
304.13263	24977
304.15359	25165
304.17456	25212
304.19553	25325
304.21649	25412
304.23746	25341
304.25842	25511
304.27939	25543
304.30035	25458
304.32132	25431
304.34229	25515
304.36325	25507
304.38422	25372
304.40518	25362
304.42615	25390
304.44711	25399
304.46808	25305
304.48904	25219
304.51001	24987
304.53098	25080
304.55191	25074
304.57288	25268
304.59384	25380
304.61481	25317
304.63577	25238
304.65674	25299
304.6777	25459
304.69864	25405
304.7196	25464
304.74057	25577
304.76154	25574
304.7825	25607
304.80344	25562
304.8244	25563
304.84537	25669
304.86633	25694
304.8873	25459
304.90823	25379
304.9292	25537
304.95016	25598
304.97113	25567
304.99207	25574
305.01303	25557
305.034	25467
305.05496	25351
305.0759	25067
305.09686	25144
305.11783	25212
305.13876	25260
305.15973	25416
305.18069	25368
305.20163	25423
305.2226	25260
305.24356	25212
305.2645	25339
305.28546	25297
305.30643	25326
305.32736	25456
305.34833	25647
305.36926	25606
305.39023	25547
305.41119	25541
305.43213	25667
305.45309	25771
305.47403	25840
305.495	25854
305.51593	26026
305.5369	25875
305.55783	25723
305.5788	25694
305.59973	25797
305.6207	25984
305.64166	25929
305.6626	26012
305.68356	26262
305.7045	26422
305.72543	26364
305.7464	26270
305.76733	26251
305.7883	26352
305.80923	26333
305.8302	26474
305.85114	26675
305.8721	26657
305.89304	26628
305.91397	26452
305.93494	26363
305.95587	26443
305.97684	26411
305.99777	26666
306.01871	26832
306.03967	26800
306.06061	26502
306.08154	26512
306.10251	26602
306.12344	26595
306.14438	26651
306.16534	26679
306.18628	26604
306.20721	26505
306.22818	26533
306.24911	26457
306.27005	26510
306.29102	26409
306.31195	26530
306.33289	26554
306.35382	26747
306.37479	26800
306.39572	26645
306.41666	26612
306.43759	26590
306.45856	26568
306.47949	26355
306.50043	26201
306.52136	26177
306.5423	26158
306.56326	26163
306.5842	26159
306.60513	26312
306.62607	26424
306.647	26368
306.66794	26195
306.68887	26265
306.70984	26221
306.73077	26366
306.75171	26569
306.77264	26849
306.79358	26923
306.81451	26892
306.83545	26908
306.85638	27018
306.87732	27119
306.89825	27089
306.91922	26945
306.94016	26869
306.96109	26921
306.98203	26853
307.00296	26839
307.0239	26738
307.04483	26723
307.06577	26778
307.0867	26839
307.10764	26998
307.12857	27273
307.14951	27306
307.17044	27138
307.19138	27158
307.21231	27114
307.23322	27206
307.25415	27327
307.27509	27557
307.29602	27711
307.31696	27675
307.33789	27675
307.35883	27625
307.37976	27513
307.4007	27416
307.42163	27377
307.44254	27574
307.46347	27599
307.48441	27510
307.50534	27478
307.52628	27544
307.54721	27552
307.56815	27606
307.58905	27540
307.60999	27337
307.63092	27284
307.65186	27182
307.67279	27140
307.6937	27224
307.71463	27330
307.73557	27627
307.7565	27577
307.7774	27808
307.79834	27879
307.81927	27737
307.84021	27815
307.86111	27614
307.88205	27559
307.90298	27577
307.92389	27582
307.94482	27514
307.96576	27458
307.98666	27266
308.0076	27251
308.02853	27377
308.04944	27438
308.07037	27354
308.09131	27256
308.11221	27208
308.13315	27178
308.15408	27118
308.17499	27271
308.19592	27551
308.21683	27785
308.23776	27668
308.2587	27660
308.2796	27725
308.30054	27611
308.32144	27558
308.34238	27634
308.36328	27710
308.38422	27655
308.40512	27602
308.42606	27518
308.44696	27368
308.4679	27229
308.4888	27264
308.50974	27575
308.53064	27847
308.55157	27943
308.57248	27842
308.59341	27633
308.61432	27562
308.63525	27643
308.65616	27944
308.67706	28072
308.698	28275
308.7189	28319
308.73984	28355
308.76074	28114
308.78168	28175
308.80258	28213
308.82349	28366
308.84442	28340
308.86533	28417
308.88623	28348
308.90717	28309
308.92807	28236
308.94897	28224
308.96991	28176
308.99081	28139
309.01172	28008
309.03265	28186
309.05356	28169
309.07446	28083
309.09537	28217
309.1163	28298
309.13721	28319
309.15811	28188
309.17902	28490
309.19995	28635
309.22086	28722
309.24176	28706
309.26266	28737
309.2836	28779
309.3045	28572
309.32541	28534
309.34631	28541
309.36722	28643
309.38812	28612
309.40906	28547
309.42996	28617
309.45087	28687
309.47177	28645
309.49268	28530
309.51358	28416
309.53448	28354
309.55542	28267
309.57632	28401
309.59723	28427
309.61813	28376
309.63904	28323
309.65994	28155
309.68085	28295
309.70175	28582
309.72266	28552
309.74356	28579
309.76447	28603
309.78537	28649
309.80627	28526
309.82718	28529
309.84808	28561
309.86899	28742
309.88989	28966
309.9108	28904
309.9317	28919
309.95261	29115
309.97351	29249
309.99442	29272
310.01532	29275
310.03622	29303
310.05713	29236
310.07803	29196
310.09894	29126
310.11981	29337
310.14072	29344
310.16162	29258
310.18253	29181
310.20343	28972
310.22433	28928
310.24524	28982
310.26614	29331
310.28702	29302
310.30792	29211
310.32883	29151
310.34973	29248
310.37064	29335
310.39151	29304
310.41241	29268
310.43332	29430
310.45422	29517
310.47513	29448
310.496	29312
310.51691	29390
310.53781	29479
310.55872	29346
310.57959	29239
310.60049	29257
310.6214	29469
310.64227	29412
310.66318	29408
310.68408	29347
310.70499	29215
310.72586	29154
310.74677	29128
310.76767	28965
310.78854	29125
310.80945	28956
310.83032	28993
310.85123	29005
310.87213	29090
310.89301	29065
310.91391	29049
310.93481	29047
310.95569	29073
310.97659	29033
310.99747	29095
311.01837	29188
311.03925	29280
311.06015	29211
311.08105	29198
311.10193	29238
311.12283	29536
311.14371	29623
311.16461	29663
311.18549	29751
311.20639	29635
311.22726	29456
311.24817	29358
311.26904	29450
311.28995	29624
311.31082	29834
311.3317	29878
311.3526	30052
311.37347	30341
311.39438	30435
311.41525	30335
311.43616	30169
311.45703	30200
311.47791	30083
311.49881	29979
311.51968	29994
311.54059	30210
311.56146	30194
311.58234	30226
311.60324	30135
311.62411	30083
311.64499	30123
311.66589	30106
311.68677	30202
311.70764	30333
311.72855	30295
311.74942	30239
311.77029	30171
311.79117	30373
311.81207	30375
311.83295	30413
311.85382	30441
311.87469	30510
311.8956	30432
311.91647	30220
311.93735	30279
311.95822	30322
311.97913	30331
312	30424
312.02087	30505
312.04175	30605
312.06262	30712
312.08353	30732
312.1044	30971
312.12527	31032
312.14615	30959
312.16702	30886
312.1879	30901
312.20877	30829
312.22968	30609
312.25055	30810
312.27142	30947
312.2923	31021
312.31317	31076
312.33405	30929
312.35492	30899
312.37579	30858
312.39667	31039
312.41754	31302
312.43842	31595
312.45929	31886
312.48016	31945
312.50104	31697
312.52191	31770
312.54279	31832
312.56366	31742
312.58453	31770
312.60541	31694
312.62628	31731
312.64716	31804
312.66803	31625
312.6889	31506
312.70978	31359
312.73065	31345
312.75153	31535
312.7724	31903
312.79327	32060
312.81415	32131
312.83499	32031
312.85587	31759
312.87674	31801
312.89761	31925
312.91849	31975
312.93936	31734
312.96024	31426
312.98108	30944
313.00195	30388
313.02283	30065
313.0437	29992
313.06458	29852
313.08545	29749
313.10629	29623
313.12717	29602
313.14804	29478
313.16891	29406
313.18976	29320
313.21063	29265
313.23151	29248
313.25238	29178
313.27322	29165
313.2941	29195
313.31497	28962
313.33582	28881
313.35669	28973
313.37756	29164
313.39841	29217
313.41928	29418
313.44016	29492
313.461	29546
313.48187	29487
313.50275	29304
313.52359	29312
313.54446	29194
313.56534	29032
313.58618	28807
313.60706	28724
313.6279	28694
313.64877	28538
313.66965	28330
313.69049	28328
313.71136	28428
313.73221	28537
313.75308	28529
313.77393	28583
313.7948	28596
313.81564	28449
313.83652	28427
313.85736	28517
313.87823	28812
313.89908	28995
313.91995	28872
313.9408	28918
313.96167	28955
313.98251	29072
314.00339	28895
314.02423	29035
314.04507	29016
314.06595	28813
314.08679	28777
314.10767	28661
314.12851	28599
314.14938	28623
314.17023	28703
314.19107	29036
314.21194	29241
314.23279	29329
314.25363	29163
314.27451	28987
314.29535	28992
314.31619	29190
314.33707	29352
314.35791	29505
314.37875	29715
314.39963	29790
314.42047	29649
314.44131	29572
314.46216	29589
314.48303	29676
314.50388	29742
314.52472	29735
314.54556	29800
314.56644	29679
314.58728	29688
314.60812	29658
314.62897	29716
314.64981	29677
314.67068	29467
314.69153	29325
314.71237	29311
314.73322	29221
314.75406	29336
314.7749	29487
314.79578	29643
314.81662	29508
314.83746	29723
314.85831	29768
314.87915	29892
314.89999	29754
314.92084	29882
314.94168	30101
314.96252	30095
314.9834	30097
315.00424	30155
315.02509	30031
315.04593	30183
315.06677	30062
315.08762	30108
315.10846	30187
315.1293	30250
315.15015	30064
315.17099	29921
315.19183	29802
315.21268	29756
315.23352	29753
315.25436	29852
315.27521	29809
315.29605	29813
315.31689	29620
315.33771	29630
315.35855	29788
315.37939	29903
315.40024	29915
315.42108	29985
315.44193	29996
315.46277	29954
315.48361	29785
315.50446	29866
315.5253	29942
315.54611	30213
315.56696	30161
315.5878	30038
315.60864	30153
315.62949	30253
315.65033	30375
315.67114	30322
315.69199	30293
315.71283	30334
315.73367	30328
315.75449	30302
315.77533	30321
315.79617	30483
315.81702	30437
315.83783	30225
315.85867	30077
315.87952	30113
315.90036	30111
315.92117	30185
315.94202	30425
315.96286	30491
315.98367	30399
316.00452	30328
316.02536	30479
316.04617	30389
316.06702	30426
316.08786	30437
316.10867	30642
316.12952	30564
316.15036	30529
316.17117	30421
316.19202	30461
316.21283	30536
316.23367	30366
316.25452	30184
316.27533	30282
316.29617	30432
316.31699	30538
316.33783	30545
316.35864	30514
316.37949	30415
316.4003	30206
316.42114	29946
316.44196	29925
316.4628	29775
316.48361	29834
316.50446	29841
316.52527	29984
316.54611	30062
316.56693	29976
316.58777	29864
316.60858	29818
316.62943	29856
316.65024	29872
316.67105	29965
316.69189	30225
316.71271	30269
316.73355	30095
316.75436	30095
316.77518	30158
316.79602	30243
316.81683	30311
316.83765	30468
316.85849	30562
316.8793	30323
316.90012	30159
316.92096	30173
316.94177	30180
316.96259	30231
316.98343	30179
317.00424	30204
317.02505	30460
317.04587	30831
317.06671	30860
317.08752	30662
317.10834	30629
317.12915	30616
317.14999	30662
317.17081	30692
317.19162	30776
317.21243	30827
317.23325	30934
317.25409	30800
317.2749	30678
317.29572	30704
317.31653	30609
317.33734	30720
317.35815	30769
317.379	30865
317.39981	30612
317.42062	30443
317.44144	30524
317.46225	30693
317.48306	30602
317.50388	30436
317.52469	30412
317.5455	30233
317.56631	30184
317.58713	30110
317.60797	30040
317.62878	30123
317.6496	30174
317.67041	30261
317.69122	30440
317.71204	30489
317.73285	30448
317.75366	30475
317.77448	30464
317.79529	30447
317.8161	30263
317.83691	30141
317.8577	30167
317.87851	30031
317.89932	29916
317.92014	30035
317.94095	30162
317.96176	30184
317.98257	30139
318.00339	30101
318.0242	30045
318.04501	30031
318.0658	30122
318.08661	30316
318.10742	30619
318.12823	30929
318.14905	30924
318.16986	30739
318.19064	30845
318.21146	30879
318.23227	30745
318.25308	30748
318.2739	30684
318.29468	30746
318.31549	30720
318.3363	30624
318.35712	30476
318.3779	30312
318.39871	30280
318.41953	30513
318.44034	30838
318.46112	31047
318.48193	31076
318.50275	31026
318.52353	30864
318.54434	30921
318.56516	30900
318.58594	31208
318.60675	31431
318.62756	31483
318.64835	31647
318.66916	31414
318.68997	31595
318.71075	31545
318.73157	31484
318.75235	31425
318.77316	31473
318.79398	31481
318.81476	31387
318.83557	31253
318.85635	31255
318.87717	31220
318.89795	31269
318.91876	31116
318.93954	31187
318.96036	31073
318.98114	31180
319.00195	31125
319.02274	31171
319.04355	31135
319.06433	31332
319.08514	31612
319.10593	31548
319.12674	31651
319.14752	31654
319.1683	31754
319.18912	31501
319.2099	31463
319.23071	31478
319.2515	31364
319.27228	31284
319.29309	31295
319.31387	31166
319.33469	31072
319.35547	31192
319.37625	31258
319.39706	31269
319.41785	31269
319.43863	31332
319.45944	31208
319.48022	31131
319.50101	31307
319.52179	31380
319.5426	31550
319.56339	31671
319.58417	31656
319.60495	31711
319.62576	31583
319.64655	31652
319.66733	31602
319.68811	31729
319.70892	31670
319.72971	31674
319.75049	31429
319.77127	31455
319.79205	31245
319.81284	31315
319.83365	31543
319.85443	31747
319.87521	31935
319.896	31968
319.91678	31700
319.93756	31622
319.95834	31661
319.97913	31864
319.99994	31989
320.02072	32037
320.0415	32280
320.06229	32419
320.08307	32104
320.10385	32211
320.12463	32311
320.14542	32267
320.1662	32375
320.18698	32391
320.20776	32284
320.22855	32147
320.24933	32298
320.27011	32303
320.29089	32318
320.31168	32290
320.33246	32121
320.35324	31863
320.37402	31997
320.39481	31988
320.41559	32103
320.43637	32140
320.45712	32240
320.47791	32365
320.49869	32592
320.51947	32615
320.54025	32642
320.56104	32580
320.58182	32561
320.6026	32577
320.62335	32629
320.64413	32586
320.66492	32588
320.6857	32813
320.70648	32725
320.72723	32625
320.74802	32704
320.7688	32906
320.78958	32775
320.81036	32506
320.83112	32235
320.8519	32122
320.87268	32057
320.89346	32089
320.91422	32032
320.935	32057
320.95578	31864
320.97653	31890
320.99731	31696
321.0181	31987
321.03885	32177
321.05963	32058
321.08041	32173
321.10117	32410
321.12195	32359
321.14273	32117
321.16348	32161
321.18427	32132
321.20502	32268
321.2258	32471
321.24658	32287
321.26733	32373
321.28812	32776
321.30887	32850
321.32965	32779
321.3504	32708
321.37119	32631
321.39194	32503
321.41272	32565
321.43347	32689
321.45425	32811
321.47501	32793
321.49579	32624
321.51654	32626
321.53732	32541
321.55807	32653
321.57886	32609
321.59961	32871
321.62039	33029
321.64114	32820
321.6619	32788
321.68268	32798
321.70343	33014
321.72421	32877
321.74496	33081
321.76572	33103
321.7865	33071
321.80725	33168
321.828	33110
321.84879	32988
321.86954	33037
321.89029	33039
321.91107	32979
321.93182	33226
321.95258	33321
321.97336	33155
321.99411	33223
322.01486	33236
322.03561	33120
322.0564	32842
322.07715	32791
322.0979	32511
322.11865	32687
322.13943	32710
322.16019	32796
322.18094	32795
322.20169	32903
322.22244	32884
322.24323	32883
322.26398	33054
322.28473	33100
322.30548	33073
322.32623	33321
322.34698	33630
322.36774	33838
322.38852	33750
322.40927	33652
322.43002	33667
322.45078	33812
322.47153	33855
322.49228	33831
322.51303	33966
322.53378	33873
322.55453	33797
322.57529	33715
322.59604	33678
322.61679	33677
322.63754	33765
322.65829	33593
322.67905	33893
322.6998	34127
322.72055	34164
322.7413	33994
322.76205	33901
322.78281	34125
322.80356	34157
322.82431	34347
322.84506	34488
322.86581	34625
322.88657	34628
322.90732	34461
322.92807	34626
322.94879	34232
322.96954	34412
322.9903	34323
323.01105	34397
323.0318	34442
323.05255	34234
323.0733	34068
323.09402	34151
323.11478	34219
323.13553	34234
323.15628	34115
323.17703	34027
323.19775	34015
323.21851	33758
323.23926	33798
323.26001	33748
323.28073	33889
323.30148	33865
323.32224	33990
323.34299	34035
323.36371	34104
323.38446	34276
323.40521	34020
323.42593	33848
323.44669	33676
323.46744	33785
323.48816	33575
323.50891	33635
323.52966	33567
323.55038	33519
323.57114	33628
323.59189	33595
323.61261	33741
323.63336	33544
323.65408	33638
323.67484	33525
323.69556	33425
323.71631	33661
323.73706	33839
323.75778	34065
323.77853	34255
323.79926	34140
323.82001	34022
323.84073	34401
323.86148	34212
323.8822	34224
323.90295	34098
323.92368	34103
323.94443	33984
323.96515	34009
323.9859	33846
324.00662	33860
324.02734	33908
324.0481	33872
324.06882	34005
324.08957	34228
324.11029	34244
324.13104	34196
324.15176	34281
324.17249	34233
324.19324	34242
324.21396	34576
324.23468	34606
324.25543	34797
324.27615	35103
324.29688	34762
324.31763	35008
324.33835	35003
324.35907	34874
324.37982	34824
324.40054	34770
324.42126	34842
324.44199	34782
324.46274	34864
324.48346	34691
324.50418	34983
324.5249	34904
324.54562	34945
324.56638	34736
324.5871	34621
324.60782	34681
324.62854	34543
324.64926	34681
324.67001	34556
324.69073	34712
324.71146	34757
324.73218	35029
324.7529	35278
324.77362	34996
324.79434	35296
324.81506	35083
324.83582	35172
324.85654	35125
324.87726	35226
324.89798	35063
324.9187	35222
324.93942	34972
324.96014	34689
324.98087	34732
325.00159	34801
325.02231	34754
325.04303	34748
325.06375	34750
325.08447	34924
325.10519	34558
325.12592	34764
325.14664	34578
325.16736	34909
325.18808	34942
325.2088	35129
325.22952	34989
325.25024	35075
325.27097	35141
325.29166	35061
325.31238	35100
325.3331	35036
325.35382	35101
325.37454	34964
325.39526	34976
325.41599	35071
325.43668	34721
325.4574	35035
325.47812	35026
325.49884	35321
325.51956	35612
325.54028	35300
325.56097	35273
325.5817	35105
325.60242	35352
325.62314	35271
325.64383	35428
325.66455	35530
325.68527	35768
325.70599	35569
325.72668	35670
325.74741	35740
325.76813	35831
325.78882	36012
325.80954	36123
325.83026	36014
325.85095	36052
325.87167	35778
325.8924	36030
325.91309	35846
325.93381	35952
325.95453	35752
325.97522	35748
325.99594	35397
326.01663	35596
326.03735	35547
326.05807	35798
326.07877	35892
326.09949	35861
326.12018	35889
326.1409	35983
326.16159	36210
326.18231	36005
326.203	36029
326.22372	36365
326.24442	36605
326.26514	36380
326.28583	36361
326.30655	36326
326.32724	36185
326.34796	36400
326.36865	36312
326.38937	36542
326.41006	36423
326.43076	36605
326.45148	36373
326.47217	36207
326.49289	36109
326.51358	35994
326.53427	35992
326.55499	36210
326.57568	36184
326.59637	35876
326.6171	35973
326.63779	35914
326.65848	35953
326.6792	36192
326.69989	36362
326.72058	36208
326.7413	36359
326.76199	36356
326.78268	36140
326.80338	36223
326.8241	35821
326.84479	36308
326.86548	36251
326.88617	36336
326.90686	36499
326.92758	36650
326.94827	36673
326.96896	36475
326.98965	36498
327.01035	36428
327.03107	36419
327.05176	36428
327.07245	36484
327.09314	36728
327.11383	36849
327.13452	36538
327.15521	36468
327.1759	36513
327.19659	36473
327.21732	36571
327.23801	36711
327.2587	36898
327.27939	36593
327.30008	36743
327.32077	36681
327.34146	36820
327.36215	36560
327.38284	36812
327.40353	36598
327.42422	36819
327.44492	36660
327.46561	36647
327.4863	36654
327.50699	36844
327.52768	36621
327.54837	36561
327.56906	36478
327.58972	36665
327.61041	36466
327.6311	36391
327.65179	36418
327.67249	36209
327.69318	36128
327.71387	35842
327.73456	35761
327.75522	35633
327.77591	35600
327.7966	35694
327.81729	35779
327.83798	35799
327.85867	35845
327.87933	35807
327.90002	35891
327.92072	35617
327.94141	35924
327.96207	36001
327.98276	36081
328.00345	36362
328.02414	36251
328.0448	35960
328.06549	36082
328.08618	36106
328.10684	36344
328.12753	36276
328.14822	36308
328.16888	36507
328.18958	36390
328.21027	36047
328.23093	36207
328.25162	36085
328.27231	36053
328.29297	36243
328.31366	36288
328.33432	36718
328.35501	36935
328.3757	36797
328.39636	36679
328.41705	36664
328.43771	36692
328.4584	36857
328.47906	37018
328.49976	37142
328.52042	37206
328.54111	37138
328.56177	37229
328.58246	36936
328.60312	37020
328.62381	36780
328.64447	37087
328.66516	37168
328.68582	36779
328.70651	36832
328.72717	36832
328.74783	36784
328.76852	36754
328.78918	36858
328.80988	36786
328.83054	36686
328.8512	36620
328.87189	36542
328.89255	36644
328.91321	36732
328.9339	36751
328.95456	36920
328.97522	36899
328.99591	37073
329.01657	36959
329.03723	37166
329.05792	36767
329.07858	36661
329.09924	36682
329.1199	36740
329.14059	36820
329.16125	36683
329.18192	36518
329.20258	36605
329.22324	36548
329.24393	36460
329.26459	36748
329.28525	36497
329.30591	36453
329.32657	36491
329.34723	36733
329.36792	36873
329.38858	37357
329.40924	37216
329.4299	37426
329.45056	37133
329.47122	37087
329.49188	36869
329.51254	36960
329.5332	36893
329.55386	37235
329.57452	37025
329.59521	37189
329.61588	37127
329.63654	36671
329.6572	36965
329.67786	36833
329.69852	36899
329.71918	37208
329.73984	37533
329.7605	37454
329.78113	37316
329.80179	36976
329.82245	37143
329.84311	37424
329.86377	37470
329.88443	37499
329.90509	37687
329.92575	37682
329.94641	37521
329.96707	37712
329.98773	37772
330.00836	37920
330.02902	37844
330.04968	37705
330.07034	37951
330.091	37751
330.11166	37831
330.13229	37621
330.15295	37721
330.17361	37841
330.19427	37613
330.21494	37582
330.23557	37797
330.25623	37704
330.27689	37933
330.29755	37686
330.31818	37670
330.33884	38084
330.3595	38062
330.38013	38191
330.40079	38229
330.42145	38381
330.44208	38239
330.46274	37969
330.4834	37949
330.50403	37916
330.52469	37762
330.54535	37812
330.56598	37835
330.58664	37873
330.60727	37664
330.62793	37764
330.64859	37857
330.66922	38123
330.68988	37927
330.71051	38455
330.73117	37876
330.7518	38293
330.77246	38072
330.79309	38447
330.81375	38408
330.83438	38414
330.85504	38572
330.87567	38703
330.89633	38495
330.91696	38792
330.93762	38621
330.95825	38709
330.97888	38706
330.99954	38535
331.02017	38553
331.04083	38650
331.06146	38631
331.08209	38768
331.10275	38816
331.12338	39123
331.14404	39196
331.16467	39213
331.1853	39038
331.20596	39034
331.22659	38874
331.24722	38995
331.26788	38980
331.28851	38851
331.30914	39066
331.32977	39308
331.35043	39351
331.37106	39308
331.39169	39440
331.41232	39727
331.43298	39818
331.45361	39535
331.47424	39700
331.49487	39388
331.5155	39469
331.53616	39657
331.55679	39513
331.57742	39250
331.59805	39540
331.61868	39284
331.63931	39478
331.65994	39552
331.6806	39464
331.70123	39778
331.72186	40011
331.74249	39899
331.76312	40058
331.78375	39695
331.80438	40243
331.82501	40343
331.84564	40004
331.86627	40342
331.8869	40194
331.90753	40096
331.92816	40022
331.94879	40213
331.96942	40128
331.99005	40028
332.01068	39939
332.03131	40110
332.05194	40295
332.07257	40078
332.0932	39623
332.11383	39661
332.13446	39563
332.15509	39691
332.17572	39796
332.19632	39635
332.21695	39517
332.23758	39713
332.25821	39808
332.27884	39602
332.29947	39809
332.3201	39806
332.3407	39531
332.36133	39798
332.38196	39536
332.40259	39722
332.42322	39474
332.44382	39758
332.46445	39456
332.48508	39550
332.50571	39560
332.52631	39526
332.54694	39687
332.56757	39545
332.58817	39826
332.6088	39517
332.62943	39822
332.65002	39776
332.67065	39746
332.69128	39708
332.71188	39819
332.73251	39525
332.75314	39722
332.77374	39589
332.79437	39792
332.815	39835
332.8356	39786
332.85623	39771
332.87683	39798
332.89746	39597
332.91806	39803
332.93869	39502
332.95932	39624
332.97992	39788
333.00055	39345
333.02115	39770
333.04178	39338
333.06238	39656
333.08301	39618
333.10361	39548
333.12424	39700
333.14484	39811
333.16544	39679
333.18607	39764
333.20667	39529
333.22729	38795
333.24789	36984
