Date and Time:                Sun Jan 29 15:06:37.000 2023
Software Version:             4.31.30023.0
Temperature (C):              -40
Model:                        DU940P_BU2
Data Type:                    Counts
Acquisition Mode:             Single Scan
Trigger Mode:                 Internal
Exposure Time (secs):         100
Readout Mode:                 Full Vertical Binning
Horizontal binning:           1
Extended Dynamic Range:       off
Horizontally flipped:         false
Vertical Shift Speed (usecs): 14.51
Pixel Readout Rate (MHz):     3
Baseline Clamp:               ON
Clock Amplitude:              Normal
Output Amplifier:             High Capacity
Serial Number:                23634
Pre-Amplifier Gain:           1.000000
Spurious Noise Filter Mode:   No Filter
Photon counted:               false
Data Averaging Filter Mode:   No Filter
SR500i:
Serial Number:                
Wavelength (nm):              269
Grating Groove Density (l/mm):1199.47
Grating Blaze:                500
Output Flipper Port:          Direct
Accessory Output Port 1:      Off
Accessory Output Port 2:      Off
Accessory Output Port 3:      Off
Accessory Input Port:         On



247.2984	1982
247.31972	1898
247.34102	1890
247.36234	1876
247.38365	1882
247.40495	1892
247.42627	1884
247.44759	1894
247.46889	1863
247.4902	1880
247.51151	1874
247.53282	1884
247.55412	1860
247.57544	1866
247.59674	1865
247.61806	1865
247.63936	1853
247.66068	1839
247.68198	1885
247.70329	1878
247.72459	1855
247.74591	1860
247.76721	1878
247.78853	1827
247.80983	1853
247.83113	1845
247.85245	1832
247.87375	1833
247.89505	1826
247.91637	1856
247.93767	1822
247.95897	1843
247.98029	1843
248.00159	1850
248.02289	1843
248.0442	1852
248.06551	1846
248.08681	1840
248.10811	1864
248.12943	1866
248.15073	1820
248.17203	1858
248.19333	1818
248.21463	1818
248.23595	1860
248.25725	1850
248.27855	1853
248.29985	1828
248.32115	1856
248.34245	1843
248.36375	1842
248.38506	1841
248.40636	1868
248.42767	1836
248.44897	1854
248.47028	1853
248.49158	1842
248.51288	1915
248.53418	1834
248.55548	1844
248.57678	1859
248.59808	1855
248.61938	1897
248.64069	1842
248.66197	1865
248.68327	1844
248.70457	1865
248.72588	1836
248.74718	1874
248.76848	1855
248.78978	1841
248.81108	1859
248.83238	1870
248.85367	1846
248.87497	1878
248.89627	1875
248.91757	1859
248.93887	1861
248.96016	1851
248.98146	1848
249.00276	1855
249.02406	1872
249.04535	1862
249.06665	1845
249.08795	1832
249.10924	1862
249.13054	1857
249.15184	1884
249.17313	1870
249.19443	1869
249.21573	1880
249.23701	1858
249.25832	1871
249.27962	1847
249.3009	1856
249.3222	1857
249.34349	1882
249.36479	1855
249.38608	1873
249.40738	1863
249.42867	1884
249.44997	1861
249.47125	1868
249.49255	1893
249.51384	1852
249.53514	1866
249.55643	1863
249.57773	1889
249.59901	1902
249.6203	1922
249.6416	1875
249.66289	1881
249.68419	1886
249.70547	1872
249.72676	1890
249.74806	1872
249.76935	1872
249.79063	1879
249.81194	1884
249.83322	1887
249.85451	1877
249.87579	1874
249.89709	1869
249.91838	1896
249.93967	1883
249.96095	1904
249.98225	1870
250.00354	1865
250.02483	1881
250.04611	1893
250.0674	1874
250.08868	1858
250.10999	1872
250.13127	1891
250.15256	1879
250.17384	1867
250.19513	1880
250.21642	1868
250.2377	1858
250.25899	1867
250.28027	1890
250.30156	1938
250.32285	2035
250.34413	1888
250.36542	1863
250.3867	1879
250.40799	1870
250.42928	1859
250.45056	1873
250.47185	1880
250.49313	1869
250.51442	1886
250.53571	1867
250.55699	1874
250.57828	1869
250.59955	1871
250.62083	1889
250.64212	1862
250.66341	1877
250.68469	1852
250.70598	1913
250.72725	1863
250.74854	1851
250.76982	1855
250.79111	1876
250.81238	1881
250.83366	1892
250.85495	1880
250.87624	1874
250.89751	1880
250.91879	1895
250.94008	1881
250.96135	1878
250.98264	1878
251.00392	1889
251.02519	1895
251.04648	1881
251.06775	1895
251.08904	1897
251.11031	1923
251.13159	1882
251.15288	1902
251.17415	1901
251.19543	1873
251.21671	1917
251.23799	1898
251.25926	1891
251.28055	1901
251.30182	1906
251.3231	1885
251.34438	1903
251.36565	1890
251.38693	1890
251.4082	1911
251.42949	1906
251.45076	1930
251.47203	1883
251.49332	1881
251.51459	1926
251.53586	1900
251.55714	1909
251.57841	1901
251.59969	1923
251.62097	1917
251.64224	1899
251.66351	1915
251.68478	1902
251.70607	1898
251.72734	1898
251.74861	1916
251.76988	1938
251.79115	1934
251.81244	1908
251.83371	1903
251.85498	1932
251.87625	1927
251.89752	1912
251.91879	1899
251.94006	1885
251.96133	1920
251.98262	1915
252.00389	1959
252.02516	1923
252.04643	1941
252.0677	1926
252.08897	1935
252.11024	1938
252.13152	1930
252.15279	1923
252.17406	1926
252.19533	1938
252.2166	1957
252.23787	1933
252.25912	2003
252.2804	1930
252.30167	1940
252.32294	1946
252.34421	1939
252.36548	1958
252.38675	1961
252.40802	1963
252.42928	1928
252.45055	2005
252.47182	1958
252.49309	1957
252.51436	1976
252.53561	1968
252.55688	1958
252.57816	1948
252.59941	2000
252.62068	1945
252.64195	1952
252.66322	1935
252.68448	1946
252.70575	1959
252.72702	1952
252.74828	1946
252.76955	1962
252.7908	1960
252.81207	1940
252.83334	1974
252.8546	1987
252.87587	1976
252.89713	1963
252.9184	1991
252.93965	2008
252.96092	1972
252.98218	1983
253.00345	1956
253.0247	1969
253.04597	1999
253.06723	1967
253.0885	1966
253.10976	1965
253.13103	1973
253.15228	1958
253.17354	1961
253.19481	1966
253.21606	1981
253.23732	1976
253.25859	1947
253.27985	1947
253.3011	1964
253.32237	1948
253.34363	1948
253.36488	1958
253.38615	1941
253.40741	1962
253.42867	1939
253.44992	1951
253.47118	1966
253.49245	1953
253.5137	1961
253.53496	1964
253.55621	1951
253.57747	1949
253.59874	1956
253.62	1977
253.64125	1967
253.66251	1969
253.68376	1970
253.70502	1962
253.72627	1992
253.74753	1981
253.76878	1971
253.79004	1998
253.81129	1987
253.83255	1981
253.85381	1982
253.87506	2007
253.89632	1989
253.91757	1967
253.93883	1980
253.96008	1997
253.98134	1987
254.00259	1991
254.02385	1997
254.0451	1986
254.06636	2006
254.0876	1999
254.10886	1994
254.13011	2005
254.15137	2023
254.17262	1996
254.19386	2014
254.21512	2015
254.23637	2014
254.25763	1987
254.27888	2029
254.30013	2001
254.32138	1993
254.34264	1985
254.36388	2042
254.38513	2011
254.40639	2008
254.42763	2032
254.44888	2039
254.47014	2032
254.49138	2062
254.51263	2024
254.53387	2021
254.55513	2010
254.57639	2033
254.59763	2112
254.61888	2030
254.64012	2032
254.66138	2016
254.68262	2014
254.70387	2011
254.72511	2014
254.74637	2018
254.76761	2024
254.78886	2022
254.8101	2034
254.83134	2027
254.8526	2056
254.87384	2017
254.8951	2029
254.91634	2007
254.93758	2012
254.95883	2005
254.98007	2022
255.00131	2026
255.02257	2030
255.04381	2004
255.06505	2032
255.0863	2009
255.10754	2027
255.12878	2000
255.15002	2028
255.17126	2045
255.19252	2017
255.21376	2014
255.235	2023
255.25624	2005
255.27748	2016
255.29874	2001
255.31998	2014
255.34122	2024
255.36246	2029
255.3837	1994
255.40494	2052
255.42618	2017
255.44742	2017
255.46866	2002
255.4899	2015
255.51114	2012
255.53238	2028
255.55362	2047
255.57486	2004
255.5961	2066
255.61734	2030
255.63858	2021
255.65982	2002
255.68106	2031
255.7023	2019
255.72354	2022
255.74478	2010
255.76601	2023
255.78725	2035
255.80849	2041
255.82973	2025
255.85097	2008
255.87221	2151
255.89343	2029
255.91467	2038
255.93591	2053
255.95715	2032
255.97838	2042
255.99962	2026
256.02084	2039
256.04208	2048
256.06332	2022
256.08456	2030
256.1058	2082
256.12704	2040
256.14825	2047
256.16949	2036
256.19073	2039
256.21198	2076
256.23322	2045
256.25443	2042
256.27567	2050
256.29691	2088
256.31815	2065
256.33936	2064
256.3606	2066
256.38184	2044
256.40308	2054
256.42429	2047
256.44553	2046
256.46677	2103
256.48801	2059
256.50922	2069
256.53046	2050
256.5517	2044
256.57291	2064
256.59415	2092
256.61539	2091
256.6366	2078
256.65784	2063
256.67908	2078
256.70029	2084
256.72153	2064
256.74277	2108
256.76398	2087
256.78522	2073
256.80646	2104
256.82767	2080
256.84891	2075
256.87012	2096
256.89136	2110
256.9126	2134
256.93381	2072
256.95505	2105
256.97626	2092
256.9975	2096
257.01871	2098
257.03995	2107
257.06116	2105
257.0824	2108
257.10361	2076
257.12485	2090
257.14609	2071
257.1673	2087
257.18854	2116
257.20975	2093
257.23099	2091
257.2522	2112
257.27341	2103
257.29465	2099
257.31586	2122
257.3371	2081
257.35831	2106
257.37955	2110
257.40076	2117
257.422	2090
257.44321	2099
257.46442	2123
257.48566	2099
257.50687	2105
257.52811	2133
257.54932	2104
257.57053	2111
257.59177	2136
257.61298	2107
257.63422	2109
257.65543	2309
257.67664	2092
257.69788	2109
257.71909	2097
257.7403	2128
257.76154	2099
257.78275	2120
257.80396	2147
257.8252	2146
257.84641	2103
257.86761	2159
257.88882	2115
257.91006	2160
257.93127	2139
257.95248	2112
257.97372	2133
257.99493	2157
258.01614	2140
258.03735	2139
258.05859	2112
258.0798	2149
258.10101	2149
258.12222	2123
258.14343	2139
258.16467	2138
258.18588	2142
258.20709	2183
258.2283	2212
258.24951	2154
258.27075	2176
258.29196	2146
258.31317	2174
258.33438	2187
258.35559	2165
258.3768	2169
258.39801	2169
258.41925	2172
258.44046	2200
258.46167	2169
258.48288	2200
258.50409	2203
258.5253	2179
258.54651	2183
258.56772	2210
258.58893	2213
258.61014	2197
258.63135	2227
258.65256	2203
258.6738	2200
258.69501	2193
258.71622	2192
258.73743	2233
258.75864	2201
258.77985	2222
258.80106	2205
258.82227	2223
258.84348	2204
258.86469	2205
258.88589	2180
258.9071	2194
258.92831	2215
258.94952	2189
258.9707	2194
258.99191	2202
259.01312	2198
259.03433	2204
259.05554	2172
259.07675	2194
259.09796	2181
259.11917	2178
259.14038	2168
259.16159	2222
259.1828	2167
259.20401	2183
259.22519	2184
259.2464	2152
259.26761	2180
259.28882	2157
259.31003	2189
259.33124	2181
259.35245	2153
259.37363	2173
259.39484	2147
259.41605	2168
259.43726	2168
259.45847	2159
259.47964	2156
259.50085	2158
259.52206	2178
259.54327	2179
259.56448	2172
259.58566	2159
259.60687	2147
259.62808	2147
259.64929	2168
259.67047	2163
259.69168	2155
259.71289	2155
259.73407	2159
259.75528	2160
259.77649	2173
259.7977	2155
259.81888	2179
259.84009	2149
259.8613	2170
259.88248	2163
259.90369	2169
259.9249	2161
259.94608	2153
259.96729	2161
259.98846	2144
260.00967	2160
260.03088	2167
260.05206	2166
260.07327	2148
260.09448	2152
260.11566	2166
260.13687	2153
260.15805	2167
260.17926	2171
260.20044	2171
260.22165	2172
260.24286	2169
260.26404	2158
260.28525	2171
260.30643	2180
260.32764	2188
260.34882	2200
260.37003	2177
260.3912	2194
260.41241	2190
260.43359	2197
260.4548	2201
260.47598	2197
260.49719	2183
260.51837	2183
260.53958	2171
260.56076	2155
260.58197	2178
260.60315	2197
260.62433	2204
260.64554	2191
260.66672	2216
260.68793	2211
260.70911	2187
260.73032	2204
260.7515	2184
260.77267	2203
260.79388	2207
260.81506	2200
260.83624	2203
260.85745	2203
260.87863	2217
260.89984	2211
260.92102	2279
260.9422	2241
260.96341	2245
260.98459	2198
261.00577	2213
261.02695	2222
261.04816	2222
261.06934	2217
261.09052	2223
261.11172	2229
261.1329	2233
261.15408	2250
261.17526	2230
261.19647	2217
261.21765	2219
261.23883	2207
261.26001	2228
261.28122	2204
261.3024	2210
261.32358	2224
261.34476	2204
261.36594	2229
261.38715	2196
261.40833	2203
261.4295	2206
261.45068	2202
261.47186	2210
261.49307	2192
261.51425	2227
261.53543	2182
261.55661	2213
261.57779	2193
261.59897	2202
261.62015	2229
261.64133	2190
261.66254	2211
261.68372	2219
261.7049	2200
261.72607	2204
261.74725	2199
261.76843	2204
261.78961	2183
261.81079	2187
261.83197	2185
261.85315	2186
261.87433	2216
261.89551	2198
261.91669	2206
261.93787	2201
261.95905	2186
261.98022	2171
262.0014	2188
262.02258	2223
262.04376	2213
262.06494	2176
262.08612	2192
262.1073	2200
262.12848	2189
262.14966	2188
262.17084	2188
262.19202	2174
262.2132	2174
262.23438	2188
262.25555	2209
262.27673	2190
262.29791	2235
262.31906	2187
262.34024	2206
262.36142	2206
262.3826	2208
262.40378	2205
262.42496	2216
262.44614	2206
262.46729	2256
262.48846	2215
262.50964	2203
262.53082	2203
262.552	2216
262.57318	2236
262.59433	2210
262.61551	2219
262.63669	2216
262.65787	2231
262.67905	2217
262.7002	2220
262.72137	2225
262.74255	2229
262.76373	2204
262.78488	2206
262.80606	2236
262.82724	2216
262.84842	2218
262.86957	2233
262.89075	2239
262.91193	2252
262.93307	2218
262.95425	2250
262.97543	2249
262.99658	2221
263.01776	2225
263.03894	2253
263.06009	2263
263.08127	2249
263.10245	2280
263.1236	2253
263.14478	2269
263.16595	2248
263.1871	2252
263.20828	2237
263.22943	2239
263.25061	2237
263.27179	2256
263.29294	2261
263.31412	2274
263.33527	2241
263.35645	2257
263.37759	2263
263.39877	2278
263.41992	2234
263.4411	2252
263.46228	2241
263.48343	2316
263.50461	2228
263.52576	2289
263.54694	2274
263.56808	2263
263.58926	2282
263.61041	2239
263.63156	2255
263.65274	2246
263.67389	2254
263.69507	2258
263.71622	2252
263.7374	2251
263.75854	2256
263.77972	2284
263.80087	2308
263.82202	2275
263.8432	2246
263.86435	2244
263.88553	2263
263.90668	2301
263.92783	2252
263.94901	2258
263.97015	2269
263.9913	2271
264.01248	2253
264.03363	2251
264.05478	2286
264.07596	2306
264.09711	2279
264.11826	2273
264.13943	2273
264.16058	2259
264.18173	2246
264.20288	2272
264.22406	2259
264.24521	2301
264.26636	2277
264.28754	2287
264.30869	2274
264.32983	2282
264.35098	2274
264.37213	2257
264.39331	2277
264.41446	2291
264.43561	2278
264.45676	2280
264.47791	2293
264.49908	2275
264.52023	2296
264.54138	2285
264.56253	2291
264.58368	2285
264.60483	2275
264.62601	2268
264.64716	2295
264.6683	2272
264.68945	2265
264.7106	2278
264.73175	2289
264.7529	2293
264.77405	2283
264.7952	2287
264.81638	2300
264.83752	2280
264.85867	2316
264.87982	2291
264.90097	2285
264.92212	2273
264.94327	2281
264.96442	2278
264.98557	2290
265.00671	2285
265.02786	2301
265.04901	2275
265.07016	2302
265.09131	2252
265.11246	2282
265.13361	2268
265.15475	2306
265.1759	2281
265.19705	2281
265.2182	2287
265.23935	2289
265.2605	2286
265.28162	2324
265.30276	2302
265.32391	2309
265.34506	2270
265.36621	2303
265.38736	2298
265.40851	2293
265.42966	2282
265.45081	2328
265.47192	2252
265.49307	2320
265.51422	2297
265.53537	2298
265.55652	2294
265.57767	2293
265.59879	2285
265.61993	2316
265.64108	2308
265.66223	2280
265.68338	2310
265.7045	2340
265.72565	2315
265.7468	2279
265.76794	2295
265.78909	2299
265.81021	2312
265.83136	2310
265.85251	2287
265.87363	2293
265.89478	2288
265.91592	2294
265.93707	2289
265.95819	2304
265.97934	2293
266.00049	2301
266.02161	2308
266.04276	2284
266.0639	2280
266.08502	2275
266.10617	2283
266.12732	2294
266.14844	2293
266.16959	2309
266.1907	2311
266.21185	2313
266.233	2482
266.25412	2428
266.27527	2311
266.29639	2434
266.31754	2376
266.33868	2270
266.3598	2274
266.38095	2275
266.40207	2303
266.42322	2304
266.44434	2303
266.46548	2300
266.4866	2286
266.50775	2279
266.52887	2262
266.55002	2307
266.57114	2260
266.59229	2296
266.6134	2293
266.63455	2302
266.65567	2296
266.67682	2314
266.69794	2295
266.71909	2314
266.7402	2292
266.76132	2282
266.78247	2305
266.80359	2304
266.82474	2293
266.84586	2322
266.867	2309
266.88812	2312
266.90924	2316
266.93039	2318
266.95151	2320
266.97263	2301
266.99377	2348
267.01489	2299
267.03601	2301
267.05716	2299
267.07828	2300
267.0994	2312
267.12054	2320
267.14166	2328
267.16278	2336
267.18393	2305
267.20505	2314
267.22617	2307
267.24728	2304
267.26843	2327
267.28955	2332
267.31067	2311
267.33179	2317
267.35294	2299
267.37405	2308
267.39517	2336
267.41629	2315
267.43741	2351
267.45856	2353
267.47968	2324
267.50079	2326
267.52191	2356
267.54303	2330
267.56415	2327
267.5853	2333
267.60641	2374
267.62753	2375
267.64865	2365
267.66977	2348
267.69089	2326
267.71201	2323
267.73312	2325
267.75424	2336
267.77539	2349
267.79651	2338
267.81763	2344
267.83875	2345
267.85986	2339
267.88098	2341
267.9021	2361
267.92322	2343
267.94434	2339
267.96545	2344
267.98657	2348
268.00769	2328
268.02881	2369
268.04993	2352
268.07104	2336
268.09216	2353
268.11328	2369
268.1344	2348
268.15552	2387
268.17664	2365
268.19775	2380
268.21887	2375
268.23996	2343
268.26108	2353
268.2822	2390
268.30331	2376
268.32443	2357
268.34555	2367
268.36667	2350
268.38779	2396
268.40891	2385
268.42999	2395
268.45111	2398
268.47223	2364
268.49335	2398
268.51447	2356
268.53558	2393
268.55667	2426
268.57779	2380
268.59891	2396
268.62003	2379
268.64114	2381
268.66223	2376
268.68335	2381
268.70447	2398
268.72559	2386
268.74667	2416
268.76779	2383
268.78891	2406
268.81003	2403
268.83112	2410
268.85223	2402
268.87335	2423
268.89444	2421
268.91556	2369
268.93668	2399
268.95776	2417
268.97888	2404
269	2403
269.02109	2379
269.04221	2406
269.06332	2464
269.08441	2428
269.10553	2428
269.12665	2422
269.14774	2388
269.16885	2406
269.18994	2436
269.21106	2407
269.23218	2405
269.25327	2447
269.27438	2431
269.29547	2420
269.31659	2434
269.33768	2432
269.3588	2413
269.37988	2411
269.401	2409
269.42209	2425
269.44321	2427
269.46429	2435
269.48541	2435
269.5065	2405
269.52762	2393
269.54871	2456
269.56982	2444
269.59091	2448
269.61203	2440
269.63312	2460
269.65424	2441
269.67532	2418
269.69641	2436
269.71753	2419
269.73862	2460
269.75974	2417
269.78082	2428
269.80191	2424
269.82303	2438
269.84412	2455
269.86523	2444
269.88632	2428
269.90741	2437
269.92853	2427
269.94962	2454
269.9707	2447
269.99182	2477
270.01291	2429
270.034	2452
270.05508	2452
270.0762	2441
270.09729	2424
270.11838	2436
270.1395	2439
270.16058	2433
270.18167	2449
270.20276	2427
270.22388	2458
270.24496	2449
270.26605	2445
270.28714	2461
270.30823	2461
270.32935	2447
270.35043	2423
270.37152	2426
270.39261	2476
270.4137	2426
270.43478	2455
270.4559	2438
270.47699	2466
270.49808	2460
270.51917	2460
270.54025	2440
270.56134	2447
270.58243	2456
270.60352	2428
270.62463	2448
270.64572	2430
270.66681	2444
270.6879	2434
270.70898	2461
270.73007	2447
270.75116	2461
270.77225	2453
270.79333	2445
270.81442	2475
270.83551	2425
270.8566	2433
270.87769	2435
270.89877	2465
270.91986	2482
270.94095	2458
270.96204	2438
270.98312	2478
271.00421	2463
271.0253	2461
271.04639	2474
271.06747	2473
271.08856	2489
271.10965	2435
271.13071	2447
271.15179	2446
271.17288	2446
271.19397	2446
271.21506	2461
271.23615	2453
271.25723	2490
271.27832	2476
271.29941	2468
271.32047	2487
271.34155	2491
271.36264	2484
271.38373	2530
271.40482	2487
271.42587	2515
271.44696	2498
271.46805	2505
271.48914	2514
271.51022	2517
271.53128	2497
271.55237	2481
271.57346	2504
271.59454	2495
271.6156	2511
271.63669	2503
271.65778	2518
271.67886	2533
271.69992	2526
271.72101	2565
271.7421	2510
271.76315	2510
271.78424	2497
271.80533	2513
271.82639	2522
271.84747	2504
271.86856	2540
271.88962	2512
271.91071	2522
271.93179	2552
271.95285	2535
271.97394	2539
271.995	2563
272.01608	2513
272.03717	2541
272.05823	2536
272.07932	2563
272.10037	2570
272.12146	2555
272.14255	2549
272.1636	2556
272.18469	2547
272.20575	2540
272.22684	2555
272.24789	2543
272.26898	2548
272.29004	2547
272.31113	2565
272.33218	2567
272.35327	2561
272.37433	2576
272.39542	2578
272.41647	2610
272.43753	2567
272.45862	2564
272.47968	2579
272.50076	2582
272.52182	2566
272.54291	2559
272.56396	2556
272.58502	2576
272.60611	2594
272.62717	2579
272.64825	2561
272.66931	2575
272.69037	2572
272.71146	2579
272.73251	2575
272.75357	2582
272.77466	2597
272.79572	2569
272.81677	2567
272.83786	2570
272.85892	2616
272.87997	2630
272.90103	2569
272.92212	2563
272.94318	2590
272.96423	2568
272.98529	2584
273.00638	2585
273.02744	2564
273.04849	2575
273.06955	2606
273.09064	2596
273.11169	2605
273.13275	2590
273.15381	2616
273.17487	2614
273.19595	2595
273.21701	2582
273.23807	2566
273.25912	2586
273.28018	2598
273.30124	2582
273.3223	2585
273.34338	2587
273.36444	2609
273.3855	2575
273.40656	2601
273.42761	2591
273.44867	2579
273.46973	2594
273.49078	2578
273.51184	2604
273.5329	2595
273.55396	2607
273.57501	2602
273.59607	2602
273.61713	2608
273.63818	2616
273.65924	2609
273.6803	2642
273.70135	2611
273.72241	2586
273.74347	2619
273.76453	2640
273.78558	2608
273.80664	2610
273.8277	2613
273.84875	2615
273.86981	2641
273.89087	2609
273.91193	2643
273.93298	2629
273.95404	2624
273.9751	2631
273.99612	2626
274.01718	2633
274.03824	2652
274.0593	2669
274.08035	2646
274.10141	2665
274.12247	2678
274.14349	2672
274.16455	2644
274.18561	2652
274.20667	2669
274.22772	2664
274.24875	2658
274.26981	2649
274.29086	2694
274.31192	2648
274.33298	2685
274.354	2685
274.37506	2669
274.39612	2676
274.41718	2694
274.4382	2737
274.45926	2666
274.48032	2688
274.50134	2686
274.5224	2678
274.54346	2702
274.56448	2688
274.58554	2688
274.6066	2697
274.62762	2716
274.64868	2697
274.66974	2693
274.69077	2705
274.71182	2726
274.73288	2699
274.75391	2715
274.77496	2720
274.79599	2684
274.81705	2743
274.83807	2747
274.85913	2742
274.88019	2735
274.90121	2729
274.92227	2718
274.9433	2740
274.96436	2736
274.98538	2731
275.00644	2750
275.02747	2742
275.04852	2749
275.06955	2764
275.09061	2721
275.11163	2760
275.13269	2744
275.15372	2745
275.17477	2764
275.1958	2776
275.21686	2775
275.23788	2743
275.25891	2766
275.27997	2766
275.30099	2783
275.32205	2780
275.34308	2773
275.36411	2788
275.38516	2755
275.40619	2761
275.42722	2779
275.44827	2788
275.4693	2798
275.49033	2777
275.51138	2796
275.53241	2789
275.55344	2797
275.57449	2800
275.59552	2794
275.61655	2807
275.6376	2804
275.65863	2787
275.67966	2820
275.70068	2829
275.72174	2804
275.74277	2852
275.76379	2868
275.78482	2815
275.80588	2824
275.8269	2808
275.84793	2828
275.86896	2821
275.88998	2817
275.91104	2825
275.93207	2820
275.95309	2796
275.97412	2866
275.99515	2816
276.01617	2835
276.0372	2852
276.05826	2823
276.07928	2835
276.10031	2864
276.12134	2844
276.14236	2855
276.16339	2848
276.18442	2857
276.20544	2838
276.22647	2856
276.2475	2850
276.26852	2862
276.28955	2857
276.31058	2877
276.3316	2864
276.35263	2875
276.37366	2874
276.39468	2855
276.41571	2871
276.43674	2851
276.45776	2899
276.47879	2926
276.49982	2886
276.52084	2886
276.54187	2887
276.5629	2871
276.58392	2893
276.60495	2883
276.62598	2924
276.647	2891
276.66803	2901
276.68906	2891
276.71008	2905
276.73108	2917
276.75211	2958
276.77313	2925
276.79416	2930
276.81519	2919
276.83621	2883
276.85721	2906
276.87823	2923
276.89926	2911
276.92029	2933
276.94131	2945
276.96231	2921
276.98334	3009
277.00436	2895
277.02539	2909
277.04642	2920
277.06741	2961
277.08844	2949
277.10947	2939
277.13046	2956
277.15149	2965
277.17252	2955
277.19354	2944
277.21454	2941
277.23557	2925
277.25659	2944
277.27759	2941
277.29861	2945
277.31964	2975
277.34064	2972
277.36166	2951
277.38269	2970
277.40369	2986
277.42471	2975
277.44571	2959
277.46674	2961
277.48776	2981
277.50876	2971
277.52979	2978
277.55078	2953
277.57181	2957
277.5928	3009
277.61383	2980
277.63483	2951
277.65585	2981
277.67685	2971
277.69788	2986
277.71887	2993
277.7399	3017
277.76089	2966
277.78192	2967
277.80292	2989
277.82394	2991
277.84494	2979
277.86597	2992
277.88696	3003
277.90799	2996
277.92899	3020
277.94998	2978
277.97101	2997
277.992	2971
278.01303	3020
278.03403	3016
278.05502	2996
278.07605	3017
278.09705	3005
278.11804	3028
278.13907	3005
278.16006	3020
278.18106	3015
278.20209	3016
278.22308	3010
278.24408	3004
278.26511	3011
278.2861	3062
278.3071	3042
278.32813	3052
278.34912	3022
278.37012	3115
278.39111	3101
278.41214	3025
278.43314	3102
278.45413	3047
278.47513	3052
278.49612	3039
278.51715	3040
278.53815	3045
278.55914	3067
278.58014	3080
278.60114	3046
278.62213	3052
278.64316	3096
278.66415	3052
278.68515	3071
278.70615	3068
278.72714	3074
278.74814	3067
278.76913	3074
278.79013	3094
278.81116	3100
278.83215	3062
278.85315	3086
278.87415	3081
278.89514	3096
278.91614	3089
278.93713	3097
278.95813	3132
278.97913	3101
279.00012	3148
279.02112	3102
279.04211	3136
279.06311	3140
279.08411	3101
279.1051	3123
279.1261	3125
279.14709	3112
279.16809	3104
279.18909	3073
279.21008	3109
279.23108	3117
279.25204	3131
279.27304	3109
279.29404	3094
279.31503	3168
279.33603	3100
279.35703	3129
279.37802	3150
279.39902	3131
279.42001	3123
279.44098	3132
279.46198	3139
279.48297	3133
279.50397	3155
279.52496	3121
279.54593	3162
279.56693	3184
279.58792	3156
279.60892	3154
279.62991	3154
279.65088	3176
279.67188	3155
279.69287	3161
279.71387	3167
279.73483	3156
279.75583	3176
279.77682	3217
279.79779	3185
279.81879	3246
279.83978	3163
279.86078	3187
279.88174	3181
279.90274	3183
279.92374	3189
279.9447	3199
279.9657	3213
279.98666	3200
280.00766	3224
280.02866	3176
280.04962	3222
280.07062	3205
280.09161	3279
280.11258	3202
280.13358	3223
280.15454	3215
280.17554	3222
280.1965	3217
280.2175	3230
280.23846	3232
280.25946	3213
280.28043	3230
280.30142	3229
280.32239	3247
280.34338	3237
280.36435	3246
280.38535	3252
280.40631	3243
280.42731	3274
280.44827	3239
280.46927	3245
280.49023	3261
280.51123	3256
280.5322	3252
280.55316	3252
280.57416	3234
280.59512	3258
280.61612	3249
280.63708	3264
280.65805	3263
280.67905	3260
280.70001	3281
280.72101	3282
280.74197	3298
280.76294	3276
280.78394	3281
280.8049	3310
280.82587	3263
280.84683	3300
280.86783	3287
280.88879	3321
280.90976	3326
280.93076	3331
280.95172	3334
280.97269	3347
280.99365	3366
281.01465	3370
281.03561	3347
281.05658	3342
281.07755	3371
281.09851	3397
281.11951	3368
281.14047	3389
281.16144	3356
281.1824	3360
281.20337	3409
281.22433	3384
281.24533	3415
281.2663	3399
281.28726	3433
281.30823	3434
281.32919	3434
281.35016	3412
281.37112	3445
281.39209	3441
281.41306	3467
281.43405	3465
281.45502	3450
281.47598	3438
281.49695	3387
281.51791	3469
281.53888	3455
281.55984	3452
281.58081	3428
281.60178	3445
281.62274	3478
281.64371	3463
281.66467	3489
281.68564	3453
281.7066	3490
281.72757	3471
281.74854	3493
281.7695	3492
281.79044	3470
281.8114	3462
281.83237	3477
281.85333	3479
281.8743	3486
281.89526	3509
281.91623	3480
281.93719	3545
281.95816	3504
281.9791	3493
282.00006	3509
282.02103	3506
282.04199	3503
282.06296	3521
282.08392	3519
282.10486	3513
282.12582	3523
282.14679	3532
282.16776	3555
282.18872	3527
282.20966	3577
282.23062	3565
282.25159	3556
282.27255	3555
282.29349	3538
282.31445	3560
282.33542	3555
282.35635	3586
282.37732	3555
282.39828	3599
282.41925	3591
282.44019	3585
282.46115	3619
282.48209	3600
282.50305	3593
282.52402	3577
282.54495	3555
282.56592	3597
282.58688	3574
282.60782	3574
282.62878	3583
282.64972	3613
282.67068	3634
282.69165	3592
282.71259	3584
282.73355	3588
282.75449	3593
282.77545	3612
282.79639	3600
282.81735	3610
282.83829	3618
282.85925	3616
282.88019	3644
282.90115	3650
282.92209	3640
282.94305	3631
282.96399	3635
282.98495	3624
283.00589	3613
283.02686	3618
283.04779	3629
283.06876	3650
283.08969	3641
283.11063	3610
283.13159	3638
283.15253	3651
283.17349	3631
283.19443	3624
283.21536	3631
283.23633	3658
283.25726	3664
283.2782	3642
283.29916	3663
283.3201	3696
283.34103	3664
283.362	3693
283.38293	3711
283.40387	3674
283.4248	3697
283.44577	3737
283.46671	3691
283.48764	3691
283.50861	3704
283.52954	3706
283.55048	3710
283.57141	3707
283.59235	3817
283.61331	3740
283.63425	3715
283.65518	3749
283.67612	3741
283.69705	3747
283.71802	3776
283.73895	3762
283.75989	3765
283.78082	3780
283.80176	3752
283.82269	3764
283.84363	3788
283.86456	3798
283.88553	3788
283.90646	3813
283.9274	3817
283.94833	3843
283.96927	3852
283.9902	3888
284.01114	3869
284.03207	3865
284.05301	3878
284.07394	3879
284.09488	3869
284.11581	3880
284.13675	3892
284.15768	3912
284.17862	3905
284.19955	3905
284.22049	3903
284.24142	3942
284.26236	3953
284.28329	3950
284.30423	3932
284.32516	3945
284.3461	3958
284.36703	3943
284.38794	3986
284.40887	3981
284.42981	4009
284.45074	3982
284.47168	3976
284.49261	4043
284.51355	4016
284.53445	4047
284.55539	4024
284.57632	4021
284.59726	4009
284.61819	4019
284.6391	4055
284.66003	4029
284.68097	4030
284.7019	4047
284.72284	4038
284.74374	4062
284.76468	4053
284.78561	4070
284.80655	4090
284.82745	4104
284.84839	4114
284.86932	4077
284.89023	4099
284.91116	4111
284.9321	4095
284.953	4153
284.97394	4151
284.99487	4118
285.01578	4165
285.03671	4139
285.05765	4125
285.07855	4176
285.09949	4157
285.12039	4156
285.14133	4184
285.16226	4178
285.18317	4194
285.2041	4206
285.22501	4218
285.24594	4226
285.26685	4250
285.28778	4249
285.30869	4269
285.32962	4280
285.35052	4271
285.37146	4297
285.39236	4281
285.4133	4322
285.4342	4317
285.45514	4341
285.47604	4342
285.49698	4392
285.51788	4397
285.53882	4423
285.55972	4414
285.58063	4482
285.60156	4460
285.62247	4459
285.6434	4492
285.66431	4490
285.68521	4521
285.70615	4581
285.72705	4529
285.74796	4548
285.76889	4565
285.78979	4559
285.8107	4575
285.83163	4597
285.85254	4586
285.87344	4625
285.89438	4658
285.91528	4678
285.93619	4692
285.95709	4674
285.97803	4714
285.99893	4694
286.01984	4710
286.04074	4735
286.06168	4723
286.08258	4729
286.10349	4738
286.12439	4751
286.14529	4743
286.16623	4764
286.18713	4797
286.20804	4800
286.22894	4769
286.24985	4794
286.27075	4786
286.29166	4794
286.31259	4766
286.3335	4793
286.3544	4783
286.37531	4809
286.39621	4799
286.41711	4805
286.43802	4809
286.45892	4833
286.47983	4826
286.50073	4832
286.52164	4868
286.54254	4864
286.56345	4867
286.58435	4925
286.60526	4882
286.62616	4890
286.64706	4900
286.66797	4912
286.68887	4891
286.70978	4920
286.73068	4928
286.75159	4945
286.77249	4931
286.7934	4907
286.8143	4923
286.83521	4935
286.85611	4960
286.87698	4965
286.89789	4968
286.91879	5017
286.9397	5021
286.9606	5035
286.98151	5101
287.00241	5032
287.02328	5049
287.04419	5040
287.06509	5071
287.086	5107
287.1069	5101
287.12778	5098
287.14868	5101
287.16959	5139
287.19049	5157
287.21136	5168
287.23227	5184
287.25317	5228
287.27408	5228
287.29495	5241
287.31586	5279
287.33676	5279
287.35764	5329
287.37854	5284
287.39944	5325
287.42032	5370
287.44122	5399
287.46213	5470
287.483	5416
287.50391	5446
287.52478	5451
287.54568	5526
287.56659	5616
287.58746	5717
287.60837	5736
287.62924	5816
287.65015	5689
287.67102	5721
287.69193	5759
287.71283	5841
287.7337	5984
287.75461	5886
287.77548	5905
287.79639	5948
287.81726	6094
287.83817	6091
287.85904	6185
287.87994	6143
287.90082	6201
287.92169	6234
287.9426	6327
287.96347	6351
287.98438	6453
288.00525	6560
288.02615	6623
288.04703	6662
288.0679	6720
288.08881	6781
288.10968	6816
288.13055	6840
288.15146	6949
288.17233	7013
288.19324	7040
288.21411	7095
288.23499	7147
288.25586	7072
288.27676	7277
288.29764	7338
288.31851	7459
288.33942	7516
288.36029	7530
288.38116	7575
288.40204	7580
288.42294	7621
288.44382	7710
288.46469	7717
288.48557	7778
288.50644	7862
288.52734	7958
288.54822	7971
288.56909	8000
288.58997	8000
288.61084	8116
288.63174	8121
288.65262	8211
288.67349	8203
288.69437	8244
288.71524	8231
288.73611	8334
288.75699	8412
288.77786	8376
288.79874	8445
288.81964	8489
288.84052	8529
288.86139	8602
288.88226	8609
288.90314	8681
288.92401	8800
288.94489	8909
288.96576	8965
288.98663	9075
289.00751	9076
289.02838	9169
289.04926	9283
289.07013	9327
289.091	9420
289.11188	9516
289.13275	9505
289.15363	9631
289.17447	9709
289.19534	9774
289.21622	9849
289.23709	10017
289.25797	10152
289.27884	10297
289.29971	10293
289.32059	10326
289.34146	10529
289.3623	10578
289.38318	10726
289.40405	10795
289.42493	10990
289.4458	11032
289.46664	11162
289.48752	11320
289.50839	11564
289.52927	11678
289.55014	11756
289.57098	11875
289.59186	12065
289.61273	12223
289.63361	12439
289.65445	12593
289.67532	12805
289.6962	12936
289.71704	13044
289.73792	13249
289.75879	13398
289.77963	13552
289.80051	13676
289.82138	13807
289.84222	14051
289.8631	14275
289.88397	14428
289.90482	14588
289.92569	14758
289.94653	14812
289.96741	14917
289.98828	15097
290.00912	15185
290.03	15333
290.05084	15513
290.07172	15653
290.09256	15723
290.11343	15733
290.13428	15861
290.15515	15908
290.17599	16020
290.19687	16107
290.21771	16150
290.23859	16256
290.25943	16284
290.2803	16356
290.30115	16432
290.32202	16558
290.34286	16577
290.36374	16635
290.38458	16664
290.40543	16710
290.4263	16774
290.44714	16831
290.46802	16825
290.48886	16579
