Date and Time:                Mon Oct 10 15:11:51.000 2022
Software Version:             4.31.30023.0
Temperature (C):              -40
Model:                        DU940P_BU2
Data Type:                    Counts
Acquisition Mode:             Single Scan
Trigger Mode:                 Internal
Exposure Time (secs):         100
Readout Mode:                 Full Vertical Binning
Horizontal binning:           1
Extended Dynamic Range:       off
Horizontally flipped:         false
Vertical Shift Speed (usecs): 14.51
Pixel Readout Rate (MHz):     3
Baseline Clamp:               ON
Clock Amplitude:              Normal
Output Amplifier:             High Capacity
Serial Number:                23634
Pre-Amplifier Gain:           1.000000
Spurious Noise Filter Mode:   No Filter
Photon counted:               false
Data Averaging Filter Mode:   No Filter
SR500i:
Serial Number:                
Wavelength (nm):              200
Grating Groove Density (l/mm):1199.47
Grating Blaze:                500
Output Flipper Port:          Direct
Accessory Output Port 1:      Off
Accessory Output Port 2:      Off
Accessory Output Port 3:      Off
Accessory Input Port:         On



177.97206	599
177.99368	593
178.0153	574
178.03691	572
178.05853	577
178.08015	585
178.10176	574
178.12338	570
178.145	574
178.16661	569
178.18823	560
178.20985	589
178.23146	576
178.25308	562
178.27469	562
178.29631	561
178.31793	573
178.33954	550
178.36116	591
178.38277	565
178.40439	554
178.42599	559
178.44762	569
178.46922	566
178.49084	563
178.51245	574
178.53407	565
178.55568	558
178.5773	545
178.59891	546
178.62053	545
178.64214	555
178.66376	568
178.68536	564
178.70697	560
178.72859	571
178.7502	567
178.77182	569
178.79343	564
178.81503	580
178.83665	556
178.85826	566
178.87987	552
178.90149	555
178.9231	573
178.9447	562
178.96631	551
178.98793	532
179.00954	569
179.03114	550
179.05275	545
179.07437	559
179.09598	551
179.11758	555
179.13919	557
179.16081	565
179.18242	560
179.20403	593
179.22563	557
179.24724	548
179.26884	567
179.29047	544
179.31207	581
179.33368	549
179.35529	546
179.37689	534
179.3985	557
179.4201	557
179.44171	574
179.46332	558
179.48492	551
179.50653	545
179.52814	581
179.54974	549
179.57135	560
179.59296	561
179.61456	549
179.63617	536
179.65778	543
179.67938	546
179.70099	539
179.7226	558
179.7442	537
179.76581	541
179.78741	537
179.80902	542
179.83063	546
179.85223	542
179.87383	534
179.89543	546
179.91704	540
179.93864	534
179.96025	547
179.98186	543
180.00345	528
180.02505	536
180.04666	555
180.06827	528
180.08986	536
180.11147	534
180.13307	528
180.15468	525
180.17627	528
180.19788	542
180.21948	526
180.24107	529
180.26268	528
180.28429	533
180.30589	540
180.32748	565
180.34909	523
180.37068	530
180.39229	529
180.41389	512
180.43549	535
180.45709	533
180.47868	521
180.50029	538
180.5219	531
180.54349	539
180.56509	518
180.58669	526
180.60829	529
180.62988	531
180.65149	517
180.67308	546
180.69469	537
180.71628	516
180.73788	530
180.75948	537
180.78107	524
180.80267	528
180.82426	505
180.84587	519
180.86746	528
180.88905	516
180.91066	518
180.93225	508
180.95386	513
180.97545	510
180.99704	529
181.01865	508
181.04024	516
181.06183	524
181.08342	504
181.10503	531
181.12662	515
181.14821	499
181.16982	518
181.19141	542
181.213	518
181.23459	520
181.25618	506
181.27779	509
181.29938	525
181.32097	504
181.34256	515
181.36415	510
181.38576	515
181.40735	519
181.42894	543
181.45053	517
181.47212	505
181.49371	504
181.5153	517
181.5369	515
181.55849	505
181.58008	515
181.60167	508
181.62326	530
181.64485	506
181.66646	505
181.68805	514
181.70964	503
181.73122	510
181.75281	506
181.7744	499
181.79599	500
181.81758	510
181.83917	523
181.86076	491
181.88235	507
181.90395	523
181.92554	504
181.94713	522
181.96872	514
181.9903	504
182.01189	511
182.03348	509
182.05507	497
182.07666	521
182.09825	509
182.11983	508
182.14142	512
182.16301	510
182.1846	538
182.20618	505
182.22777	501
182.24936	510
182.27095	520
182.29253	502
182.31412	509
182.33571	502
182.35728	500
182.37888	501
182.40047	512
182.42204	512
182.44363	499
182.46523	501
182.4868	535
182.50839	514
182.52998	509
182.55156	505
182.57315	510
182.59473	514
182.61632	525
182.63789	495
182.65948	508
182.68106	492
182.70265	504
182.72423	498
182.74582	528
182.7674	509
182.78899	511
182.81056	490
182.83215	501
182.85373	511
182.87532	507
182.8969	501
182.91849	502
182.94006	513
182.96164	539
182.98323	514
183.00481	545
183.02638	500
183.04797	508
183.06955	506
183.09113	496
183.11272	519
183.13429	504
183.15587	522
183.17746	493
183.19904	531
183.22061	502
183.24219	501
183.26378	501
183.28535	505
183.30693	503
183.32851	496
183.35008	527
183.37167	501
183.39325	508
183.41483	496
183.4364	502
183.45798	516
183.47955	511
183.50114	498
183.52272	497
183.5443	500
183.56587	502
183.58745	505
183.60902	519
183.6306	511
183.65218	509
183.67375	553
183.69533	520
183.7169	499
183.73848	508
183.76006	488
183.78163	498
183.80321	521
183.82478	499
183.84636	505
183.86794	507
183.88951	501
183.91109	501
183.93266	503
183.95424	502
183.97581	516
183.99738	514
184.01895	510
184.04053	498
184.0621	501
184.08368	504
184.10526	499
184.12682	504
184.14839	511
184.16997	500
184.19154	491
184.21312	499
184.23468	503
184.25626	502
184.27783	500
184.29941	499
184.32097	506
184.34254	505
184.36412	488
184.38568	501
184.40726	515
184.42883	496
184.45039	510
184.47197	514
184.49355	503
184.51511	501
184.53668	496
184.55824	495
184.57982	505
184.60139	510
184.62296	506
184.64453	530
184.66609	506
184.68767	497
184.70923	510
184.7308	495
184.75237	505
184.77394	498
184.7955	493
184.81708	496
184.83864	506
184.86021	499
184.88177	502
184.90335	499
184.92491	496
184.94647	488
184.96805	495
184.98961	491
185.01118	497
185.03275	493
185.05431	515
185.07588	496
185.09744	493
185.119	501
185.14058	543
185.16214	501
185.1837	490
185.20526	503
185.22684	525
185.2484	501
185.26996	534
185.29152	498
185.3131	499
185.33466	496
185.35622	510
185.37778	583
185.39934	531
185.42091	499
185.44247	504
185.46404	501
185.4856	492
185.50716	499
185.52872	507
185.55028	500
185.57184	505
185.5934	495
185.61497	495
185.63654	519
185.6581	511
185.67966	490
185.70122	492
185.72278	503
185.74434	492
185.7659	495
185.78746	503
185.80902	504
185.83058	499
185.85214	521
185.87369	485
185.89525	498
185.91681	497
185.93837	508
185.95993	501
185.98149	501
186.00305	507
186.02461	501
186.04617	500
186.06772	501
186.08928	481
186.11084	501
186.1324	507
186.15396	509
186.17551	493
186.19707	526
186.21863	496
186.24019	492
186.26173	489
186.28329	489
186.30486	497
186.32642	492
186.34796	501
186.36952	494
186.39108	531
186.41263	502
186.43419	507
186.45575	494
186.47729	503
186.49886	490
186.5204	500
186.54196	505
186.56352	504
186.58507	495
186.60663	504
186.62817	491
186.64973	501
186.67128	622
186.69284	536
186.71439	502
186.73595	522
186.75749	509
186.77905	498
186.8006	504
186.82216	500
186.8437	502
186.86526	507
186.88681	517
186.90836	524
186.92992	502
186.95146	507
186.97302	509
186.99457	499
187.01611	526
187.03767	505
187.05922	505
187.08076	512
187.10233	544
187.12387	535
187.14542	514
187.16696	544
187.18852	505
187.21007	511
187.23161	507
187.25316	506
187.27472	538
187.29626	523
187.31781	518
187.33936	519
187.3609	521
187.38246	525
187.40401	536
187.42555	526
187.4471	527
187.46864	530
187.49019	512
187.51173	543
187.53328	548
187.55482	542
187.57637	515
187.59793	517
187.61948	527
187.64102	528
187.66257	522
187.68411	530
187.70566	529
187.7272	570
187.74875	523
187.77029	536
187.79182	534
187.81337	538
187.83492	531
187.85646	548
187.87801	557
187.89955	561
187.9211	523
187.94264	545
187.96419	522
187.98572	516
188.00726	542
188.02881	526
188.05035	514
188.0719	522
188.09344	511
188.11497	514
188.13652	526
188.15807	507
188.17961	519
188.20114	509
188.22269	515
188.24423	509
188.26576	510
188.28731	516
188.30885	515
188.33038	501
188.35193	533
188.37347	531
188.395	524
188.41655	561
188.4381	514
188.45963	511
188.48117	910
188.5027	504
188.52425	544
188.54578	502
188.56732	534
188.58887	518
188.6104	518
188.63194	554
188.65347	545
188.67502	525
188.69655	586
188.71809	527
188.73962	543
188.76115	524
188.7827	530
188.80423	529
188.82578	534
188.84731	551
188.86884	539
188.89038	510
188.91191	548
188.93344	532
188.95499	537
188.97652	541
188.99805	544
189.01959	543
189.04112	598
189.06265	616
189.0842	560
189.10573	539
189.12726	524
189.14879	545
189.17033	568
189.19186	547
189.21339	552
189.23492	558
189.25645	554
189.27798	559
189.29953	548
189.32106	538
189.34259	529
189.36412	539
189.38565	547
189.40718	567
189.42871	554
189.45024	572
189.47177	585
189.4933	567
189.51485	559
189.53638	558
189.55791	540
189.57944	577
189.60097	543
189.6225	551
189.64403	558
189.66554	557
189.68707	561
189.7086	575
189.73013	622
189.75166	568
189.77319	562
189.79472	563
189.81625	556
189.83778	557
189.85931	556
189.88083	559
189.90236	548
189.92389	568
189.94542	545
189.96695	549
189.98846	540
190.00999	587
190.03152	525
190.05305	519
190.07457	518
190.0961	497
190.11763	520
190.13916	520
190.16068	545
190.18221	513
190.20374	526
190.22525	526
190.24678	522
190.26831	543
190.28983	549
190.31136	526
190.33287	518
190.3544	529
190.37593	559
190.39745	576
190.41898	543
190.44049	539
190.46202	516
190.48354	551
190.50507	557
190.52658	564
190.54811	566
190.56963	541
190.59116	531
190.61267	539
190.6342	569
190.65572	556
190.67723	601
190.69876	582
190.72028	561
190.74181	544
190.76332	542
190.78484	566
190.80637	572
190.82788	574
190.8494	575
190.87093	595
190.89244	566
190.91396	552
190.93547	547
190.957	586
190.97852	592
191.00003	601
191.02155	592
191.04308	610
191.06459	597
191.08611	601
191.10762	570
191.12914	556
191.15067	608
191.17218	594
191.1937	601
191.21521	631
191.23672	597
191.25824	621
191.27975	604
191.30127	594
191.32278	580
191.3443	556
191.36581	586
191.38734	607
191.40886	607
191.43037	606
191.45189	610
191.47339	608
191.4949	615
191.51642	611
191.53793	623
191.55945	601
191.58096	587
191.60248	596
191.62399	606
191.64551	621
191.66702	611
191.68854	607
191.71004	613
191.73155	606
191.75307	614
191.77458	609
191.7961	664
191.81761	613
191.83911	636
191.86063	602
191.88214	616
191.90366	610
191.92516	619
191.94667	613
191.96819	632
191.98969	619
192.0112	611
192.03271	617
192.05421	623
192.07573	626
192.09724	638
192.11874	616
192.14026	599
192.16177	599
192.18327	590
192.20479	591
192.22629	552
192.2478	543
192.2693	533
192.29082	555
192.31232	539
192.33383	537
192.35533	564
192.37685	566
192.39835	552
192.41986	548
192.44136	614
192.46288	583
192.48438	549
192.50589	568
192.52739	576
192.54889	612
192.5704	620
192.5919	590
192.6134	559
192.63492	560
192.65642	603
192.67792	617
192.69943	631
192.72093	616
192.74243	576
192.76395	572
192.78545	597
192.80695	641
192.82845	632
192.84996	643
192.87146	624
192.89296	602
192.91446	610
192.93596	625
192.95746	645
192.97897	649
193.00047	673
193.02197	667
193.04347	658
193.06497	639
193.08647	602
193.10797	619
193.12947	645
193.15097	660
193.17247	672
193.19397	694
193.21547	675
193.23697	685
193.25847	659
193.27997	640
193.30147	656
193.32297	651
193.34447	664
193.36597	711
193.38747	686
193.40897	693
193.43047	677
193.45197	677
193.47346	670
193.49496	675
193.51645	657
193.53795	666
193.55945	679
193.58095	695
193.60245	688
193.62393	702
193.64543	690
193.66693	700
193.68843	702
193.70992	693
193.73141	676
193.75291	658
193.77441	680
193.7959	686
193.8174	687
193.8389	672
193.86038	690
193.88188	710
193.90338	681
193.92487	670
193.94637	697
193.96785	732
193.98935	685
194.01085	714
194.03233	687
194.05383	724
194.07532	725
194.09682	712
194.1183	709
194.1398	695
194.16129	708
194.18279	710
194.20427	705
194.22577	724
194.24725	713
194.26874	712
194.29024	715
194.31172	742
194.33322	718
194.35471	732
194.37619	736
194.39769	814
194.41917	732
194.44066	750
194.46216	753
194.48364	746
194.50513	751
194.52663	701
194.54811	652
194.5696	655
194.59108	651
194.61258	682
194.63406	649
194.65555	664
194.67703	704
194.69852	726
194.72	672
194.7415	722
194.76299	721
194.78447	723
194.80595	669
194.82744	711
194.84892	710
194.87041	738
194.89189	745
194.91338	694
194.93486	685
194.95636	709
194.97784	759
194.99933	791
195.02081	764
195.0423	741
195.06377	700
195.08525	725
195.10674	749
195.12822	768
195.1497	789
195.17119	784
195.19267	767
195.21416	743
195.23564	727
195.25713	775
195.27859	793
195.30008	780
195.32156	790
195.34305	792
195.36453	769
195.38602	793
195.40749	769
195.42897	767
195.45045	799
195.47194	807
195.49341	829
195.51489	804
195.53638	800
195.55785	814
195.57933	802
195.60081	783
195.62228	781
195.64377	799
195.66525	815
195.68672	819
195.70821	828
195.72968	820
195.75116	816
195.77264	820
195.79411	861
195.8156	818
195.83707	825
195.85855	816
195.88002	814
195.9015	818
195.92297	867
195.94446	834
195.96593	863
195.98741	839
196.00888	881
196.03035	827
196.05183	829
196.0733	836
196.09479	832
196.11626	846
196.13773	839
196.15921	845
196.18068	879
196.20215	862
196.22363	872
196.2451	869
196.26657	881
196.28804	858
196.30952	866
196.33099	886
196.35246	883
196.37393	887
196.3954	913
196.41689	889
196.43835	897
196.45982	885
196.48129	903
196.50276	918
196.52423	903
196.54572	907
196.56718	941
196.58865	897
196.61012	909
196.63159	916
196.65306	933
196.67453	936
196.696	925
196.71747	933
196.73894	918
196.76041	948
196.78188	931
196.80334	934
196.82481	924
196.84628	932
196.86775	947
196.88922	957
196.91069	938
196.93214	946
196.95361	964
196.97508	950
196.99655	925
197.01802	899
197.03949	905
197.06096	910
197.08241	921
197.10388	903
197.12535	933
197.14682	975
197.16827	932
197.18974	943
197.21121	957
197.23268	959
197.25414	932
197.2756	945
197.29707	958
197.31853	989
197.34	989
197.36147	993
197.38292	986
197.40439	989
197.42584	983
197.44731	1004
197.46878	999
197.49023	1028
197.5117	1024
197.53316	997
197.55463	1019
197.57608	1028
197.59755	1070
197.619	1036
197.64047	1046
197.66193	1038
197.6834	1050
197.70485	1043
197.7263	1060
197.74777	1084
197.76923	1092
197.7907	1069
197.81215	1079
197.8336	1083
197.85507	1087
197.87653	1093
197.89798	1082
197.91945	1079
197.9409	1088
197.96236	1153
197.98383	1103
198.00528	1091
198.02673	1113
198.04819	1118
198.06966	1107
198.09111	1121
198.11256	1135
198.13402	1159
198.15547	1131
198.17693	1140
198.19839	1145
198.21985	1129
198.2413	1129
198.26276	1134
198.28421	1138
198.30566	1131
198.32712	1152
198.34857	1158
198.37003	1163
198.39148	1154
198.41293	1189
198.43439	1178
198.45584	1168
198.47729	1178
198.49875	1232
198.5202	1190
198.54166	1211
198.56311	1195
198.58456	1239
198.60602	1231
198.62747	1250
198.64893	1259
198.67036	1225
198.69182	1243
198.71327	1255
198.73473	1251
198.75618	1272
198.77763	1280
198.79907	1274
198.82053	1277
198.84198	1273
198.86343	1295
198.88487	1305
198.90633	1313
198.92778	1307
198.94922	1316
198.97067	1318
198.99213	1317
199.01357	1334
199.03502	1332
199.05647	1320
199.07791	1340
199.09937	1359
199.12082	1376
199.14226	1375
199.16371	1376
199.18515	1382
199.2066	1406
199.22804	1380
199.2495	1385
199.27094	1396
199.29239	1406
199.31383	1414
199.33528	1422
199.35672	1421
199.37817	1451
199.39961	1423
199.42105	1448
199.4425	1471
199.46394	1468
199.4854	1477
199.50684	1452
199.52827	1475
199.54973	1477
199.57117	1497
199.59261	1485
199.61406	1475
199.6355	1459
199.65694	1474
199.67838	1477
199.69983	1491
199.72127	1512
199.74271	1524
199.76414	1529
199.78558	1538
199.80704	1533
199.82848	1544
199.84991	1574
199.87135	1575
199.89279	1597
199.91423	1581
199.93567	1578
199.95712	1617
199.97856	1634
200	1620
200.02144	1635
200.04288	1629
200.06432	1706
200.08575	1684
200.10719	1680
200.12863	1681
200.15007	1682
200.17151	1706
200.19295	1712
200.21439	1740
200.23581	1748
200.25725	1789
200.27869	1767
200.30013	1811
200.32156	1796
200.343	1780
200.36444	1788
200.38588	1798
200.4073	1823
200.42874	1838
200.45018	1848
200.47162	1834
200.49304	1853
200.51448	1845
200.53592	1874
200.55736	1913
200.57878	1913
200.60022	1915
200.62166	1901
200.64308	1966
200.66452	1934
200.68596	1935
200.70738	1974
200.72882	1937
200.75026	2004
200.77168	1991
200.79312	1989
200.81454	2027
200.83598	2018
200.85741	2058
200.87885	2041
200.90027	2056
200.92171	2078
200.94313	2080
200.96457	2091
200.98599	2133
201.00743	2162
201.02885	2126
201.05029	2165
201.07172	2156
201.09314	2176
201.11458	2164
201.136	2185
201.15744	2214
201.17886	2203
201.20029	2238
201.22173	2255
201.24315	2269
201.26457	2290
201.286	2284
201.30743	2323
201.32886	2321
201.35028	2334
201.3717	2334
201.39314	2334
201.41457	2361
201.43599	2345
201.45741	2353
201.47884	2374
201.50026	2379
201.5217	2398
201.54312	2377
201.56454	2393
201.58597	2433
201.60739	2447
201.62881	2463
201.65024	2489
201.67166	2489
201.69308	2483
201.71451	2524
201.73593	2555
201.75735	2563
201.77878	2592
201.8002	2600
201.82162	2623
201.84305	2670
201.86447	2670
201.88589	2655
201.90732	2669
201.92873	2668
201.95015	2708
201.97157	2706
201.993	2721
202.01442	2770
202.03584	2796
202.05725	2809
202.07867	2843
202.1001	2831
202.12152	2874
202.14293	2861
202.16435	2903
202.18578	2942
202.2072	2945
202.22861	2952
202.25003	3004
202.27145	2985
202.29286	3025
202.31429	3051
202.33571	3054
202.35712	3077
202.37854	3088
202.39995	3118
202.42137	3157
202.44278	3165
202.4642	3168
202.48563	3208
202.50703	3212
202.52846	3241
202.54987	3235
202.57129	3280
202.5927	3269
202.61411	3325
202.63553	3336
202.65694	3357
202.67836	3397
202.69977	3437
202.72119	3424
202.7426	3444
202.76401	3473
202.78543	3514
202.80684	3497
202.82825	3502
202.84967	3522
202.87108	3555
202.89249	3580
202.91389	3609
202.93532	3626
202.95673	3668
202.97813	3699
202.99954	3728
203.02095	3715
203.04237	3724
203.06378	3738
203.08519	3784
203.1066	3776
203.12801	3879
203.14941	3874
203.17082	3884
203.19225	3901
203.21365	3957
203.23506	3991
203.25647	4005
203.27788	4035
203.29929	4075
203.32069	4096
203.3421	4131
203.36351	4134
203.38492	4151
203.40633	4209
203.42773	4244
203.44914	4265
203.47054	4332
203.49194	4402
203.51335	4370
203.53476	4421
203.55617	4467
203.57758	4459
203.59898	4514
203.62038	4525
203.64178	4611
203.66319	4617
203.6846	4656
203.70601	4657
203.7274	4683
203.74881	4699
203.77022	4775
203.79163	4772
203.81302	4846
203.83443	4923
203.85583	4884
203.87723	4919
203.89864	4978
203.92003	4979
203.94144	5070
203.96284	5065
203.98424	5096
204.00565	5124
204.02704	5144
204.04845	5187
204.06985	5233
204.09125	5263
204.11266	5280
204.13405	5321
204.15546	5371
204.17685	5357
204.19824	5408
204.21965	5489
204.24104	5487
204.26245	5521
204.28384	5523
204.30524	5557
204.32664	5613
204.34804	5660
204.36945	5663
204.39084	5700
204.41223	5752
204.43362	5835
204.45503	5782
204.47643	5849
204.49782	5892
204.51923	5914
204.54062	5996
204.56201	6049
204.5834	6134
204.6048	6166
204.62621	6215
204.6476	6244
204.66899	6286
204.69038	6342
204.71178	6405
204.73317	6440
204.75456	6584
204.77596	6540
204.79736	6598
204.81876	6619
204.84015	6703
204.86154	6735
204.88293	6787
204.90433	6845
204.92572	6959
204.94711	6998
204.96851	6982
204.9899	7068
205.01128	7124
205.03267	7203
205.05406	7297
205.07545	7413
205.09685	7449
205.11824	7557
205.13963	7576
205.16103	7610
205.1824	7718
205.2038	7742
205.22519	7783
205.24658	7877
205.26797	7952
205.28935	7975
205.31075	8018
205.33214	8064
205.35352	8167
205.37491	8197
205.3963	8219
205.41769	8269
205.43907	8313
205.46046	8383
205.48184	8472
205.50323	8513
205.52463	8610
205.54601	8641
205.5674	8753
205.58878	8869
205.61017	8931
205.63155	8986
205.65294	9067
205.67432	9085
205.69571	9135
205.71709	9192
205.73848	9140
205.75986	9289
205.78125	9356
205.80263	9450
205.82402	9467
205.8454	9619
205.86678	9661
205.88817	9804
205.90955	9841
205.93092	9924
205.95232	9973
205.97369	10028
205.99507	10094
206.01646	10240
206.03784	10337
206.05922	10454
206.0806	10542
206.10199	10595
206.12337	10718
206.14474	10837
206.16612	10883
206.1875	10920
206.20889	11075
206.23027	11087
206.25165	11090
206.27303	11213
206.2944	11297
206.31578	11408
206.33716	11502
206.35854	11663
206.37991	11807
206.40129	11864
206.42267	12236
206.44405	11992
206.46542	12127
206.4868	12242
206.50818	12360
206.52956	12485
206.55093	12657
206.57231	12702
206.59369	12810
206.61507	12938
206.63644	13007
206.65782	13091
206.6792	13133
206.70056	13292
206.72194	13416
206.74332	13478
206.76469	13510
206.78607	13694
206.80743	13744
206.82881	13905
206.85019	13930
206.87157	13922
206.89293	14023
206.91431	14151
206.93568	14276
206.95705	14418
206.97842	14434
206.9998	14575
207.02116	14766
207.04254	14883
207.0639	15006
207.08528	15141
207.10666	15240
207.12802	15343
207.1494	15468
207.17076	15554
207.19214	15604
207.2135	15894
207.23488	15924
207.25624	15905
207.27762	15972
207.29898	16182
207.32034	16337
207.34172	16444
207.36308	16552
207.38446	16701
207.40582	16760
207.42719	16753
207.44856	16715
207.46992	16804
207.49129	17099
207.51266	17215
207.53403	17375
207.55539	17545
207.57677	17653
207.59813	17688
207.61949	17686
207.64085	17832
207.66222	17964
207.68359	18099
207.70496	18290
207.72632	18396
207.74768	18533
207.76904	18583
207.79041	18750
207.81177	18931
207.83315	19156
207.85451	19293
207.87587	19393
207.89723	19487
207.91859	19578
207.93996	19654
207.96132	19787
207.98268	19888
208.00404	20168
208.02541	20266
208.04677	20321
208.06813	20571
208.08949	20731
208.11084	20977
208.1322	21059
208.15356	21264
208.17493	21371
208.19629	21607
208.21765	21732
208.23901	21934
208.26036	22089
208.28172	22140
208.30309	22337
208.32445	22336
208.34581	22458
208.36716	22620
208.38852	22867
208.40988	23146
208.43123	23414
208.45259	23505
208.47395	23585
208.4953	23772
208.51666	23975
208.53802	24136
208.55937	24369
208.58073	24567
208.60208	24702
208.62344	24830
208.64481	24931
208.66615	25057
208.68752	25303
208.70886	25387
208.73022	25589
208.75157	25950
208.77293	26149
208.79428	26240
208.81563	26196
208.83699	26173
208.85834	26220
208.8797	26427
208.90105	26431
208.92239	26691
208.94376	26873
208.9651	27073
208.98645	27209
209.00781	27333
209.02916	27605
209.05051	27895
209.07187	27946
209.09322	28186
209.11456	28278
209.13591	28446
209.15726	28535
209.17862	28677
209.19997	28832
209.22131	29003
209.24266	29172
209.26401	29534
209.28535	29918
209.30672	30261
209.32806	30292
209.34941	30441
209.37076	30439
209.39211	30698
209.41345	30985
209.4348	31160
209.45615	31434
209.47749	31828
209.49884	31912
209.52019	32145
209.54153	32238
209.56288	32365
209.58423	32609
209.60558	32793
209.62691	33110
209.64825	33208
209.6696	33477
209.69095	33655
209.7123	33841
209.73364	34269
209.75497	34145
209.77632	34331
209.79767	34414
209.81902	34573
209.84036	34636
209.86169	34865
209.88304	34994
209.90439	35227
209.92572	35641
209.94707	35698
209.96841	36229
209.98975	36276
210.01109	36654
210.03244	36872
210.05377	36860
210.07512	37106
210.09645	37205
210.1178	37160
210.13913	37309
210.16048	37485
210.18182	37612
210.20316	37893
210.2245	38111
210.24583	38189
210.26717	38399
210.28851	38613
210.30984	38664
210.33119	38687
210.35252	39204
210.37387	39625
210.3952	40450
210.41653	40393
210.43788	40528
210.45921	40527
210.48055	40700
210.50189	40842
210.52322	40805
210.54456	41242
210.56589	41607
210.58723	41790
210.60857	42072
210.6299	42119
210.65123	42260
210.67256	42422
210.69391	42787
210.71524	42860
210.73657	43599
210.7579	43669
210.77924	44021
210.80057	44146
210.8219	44197
210.84323	44514
210.86456	44866
210.88589	45357
210.90723	45518
210.92856	46146
210.94989	45935
210.97122	46240
210.99255	46638
211.01389	46901
211.03522	46914
211.05655	47166
211.07788	47203
211.09921	47146
211.12054	47256
211.14188	47374
211.16321	47436
211.18452	47603
211.20586	47704
211.22719	47948
211.24852	48021
211.26985	48307
211.29117	48518
211.3125	48718
211.33383	48946
211.35515	49157
211.37648	49392
211.39781	49565
211.41914	49757
211.44046	49915
211.46179	50051
211.48311	50204
211.50444	50334
211.52577	50443
211.54709	50559
211.56842	50662
211.58974	50771
211.61107	50861
211.63239	50950
211.65372	51040
211.67503	51137
211.69637	51209
211.71768	51292
211.73901	51368
211.76033	51431
211.78166	51523
211.80298	51592
211.82431	51657
211.84563	51714
211.86694	51777
211.88828	51841
211.90959	51902
211.93091	51949
211.95224	51996
211.97356	52056
211.99487	52098
212.01619	52130
212.03752	52188
212.05884	52220
212.08015	52280
212.10147	52300
212.12279	52353
212.14412	52393
212.16544	52425
212.18675	52445
212.20807	52489
212.22939	52505
212.2507	52542
212.27202	52574
212.29333	52593
212.31465	52617
212.33597	52638
212.35728	52680
212.3786	52694
212.39992	52730
212.42123	52752
212.44255	52771
212.46387	52801
212.48518	52810
212.5065	52836
212.52782	52863
212.54913	52873
212.57045	52897
212.59177	52902
212.61308	52917
212.63438	52938
212.6557	52955
212.67702	52957
212.69833	52973
212.71965	52979
212.74095	53003
212.76227	53005
212.78358	53028
212.8049	53027
212.8262	53036
212.84752	53052
212.86884	53057
212.89014	53075
212.91145	53085
212.93275	53075
212.95407	53090
212.97539	53095
212.99669	53104
213.01801	53127
213.03931	53131
213.06062	53147
213.08192	53158
213.10324	53156
213.12454	53167
213.14586	53174
213.16716	53170
213.18848	53177
213.20978	53203
213.23109	53199
213.2524	53196
213.2737	53202
213.29501	53214
213.31631	53227
213.33762	53226
213.35893	53228
213.38023	53235
213.40154	53241
213.42285	53232
213.44415	53254
213.46545	53265
213.48676	53266
213.50807	53267
213.52937	53279
213.55067	53273
213.57198	53294
213.59328	53289
213.61458	53278
213.63589	53293
213.6572	53299
213.6785	53315
213.6998	53313
213.7211	53331
213.7424	53334
213.7637	53324
213.785	53331
213.8063	53330
213.82761	53329
213.84891	53343
213.87021	53332
213.89151	53354
213.91281	53355
213.93411	53347
213.95541	53348
213.97672	53346
213.998	53358
214.0193	53361
214.0406	53364
214.0619	53369
214.08321	53362
214.10451	53376
214.12579	53384
214.14709	53372
214.1684	53392
214.1897	53387
214.21098	53390
214.23228	53406
214.25359	53395
214.27487	53400
214.29617	53395
214.31747	53398
214.33876	53412
214.36006	53427
214.38136	53416
214.40265	53422
214.42395	53428
214.44524	53412
214.46654	53410
214.48782	53430
214.50912	53427
214.53041	53440
214.55171	53432
214.573	53437
214.5943	53436
214.61559	53430
214.63689	53444
214.65817	53434
214.67946	53440
214.70076	53442
214.72205	53453
214.74335	53437
214.76463	53452
214.78592	53450
214.80721	53454
214.82851	53455
214.84979	53455
214.87108	53454
214.89236	53452
214.91367	53460
214.93495	53466
214.95624	53472
214.97752	53472
214.99881	53461
215.02011	53464
215.0414	53479
215.06268	53457
215.08397	53487
215.10526	53458
215.12654	53482
215.14783	53480
215.16911	53483
215.1904	53478
215.21169	53482
215.23297	53505
215.25426	53472
215.27554	53487
215.29683	53481
215.31812	53468
215.3394	53497
215.36069	53479
215.38197	53493
215.40326	53487
215.42453	53477
215.44582	53479
215.4671	53485
215.48839	53494
215.50967	53491
215.53096	53468
215.55223	53497
215.57352	53470
215.5948	53481
215.61609	53480
215.63736	53482
215.65865	53477
215.67993	53477
215.7012	53486
215.72249	53467
215.74377	53469
215.76505	53467
215.78633	53477
215.8076	53465
215.82889	53463
215.85016	53447
215.87144	53438
215.89272	53441
215.914	53426
215.93527	53427
215.95656	53410
215.97783	53401
215.99911	53391
216.02039	53389
216.04167	53365
216.06294	53363
216.08421	53345
216.1055	53319
216.12677	53307
216.14806	53296
216.16933	53290
216.1906	53268
216.21187	53248
216.23315	53232
216.25443	53216
216.2757	53183
216.29697	53173
216.31825	53137
216.33952	53122
216.36079	53093
216.38206	53058
216.40334	53007
216.42462	52966
216.44589	52927
216.46716	52868
216.48843	52807
216.5097	52716
216.53098	52633
216.55225	52520
216.57352	52427
216.59479	52282
216.61606	52114
216.63733	51884
216.6586	51600
216.67987	51129
216.70114	50369
216.72241	48354
216.74368	47772
216.76495	47655
216.78622	47553
216.80748	47507
216.82875	47277
216.85002	47154
216.87129	47004
216.89256	46710
216.91382	46513
216.93509	46250
216.95636	45963
216.97763	45728
216.99889	45423
217.02016	45385
217.04143	45036
217.06268	45010
217.08395	44660
217.10522	44885
217.12648	44930
217.14775	44538
217.16902	44728
217.19028	44621
217.21155	44560
217.2328	44358
217.25407	44405
217.27533	44173
217.2966	44148
217.31786	44013
217.33913	43919
217.36038	43946
217.38165	43665
217.40291	43501
217.42418	43453
217.44543	43075
217.46669	43178
217.48796	42954
217.50922	43157
217.53047	42743
217.55174	42669
217.573	42527
217.59425	42531
217.61552	42374
217.63678	42208
217.65804	42077
217.67929	41908
217.70055	41643
217.72182	41337
217.74307	41493
217.76433	41143
217.78558	40928
217.80684	40896
217.82809	40953
217.84935	40729
217.87062	40920
217.89188	40276
217.91313	40332
217.93439	40127
217.95564	40123
217.9769	39898
217.99815	39957
218.01941	39668
218.04066	39817
218.06192	39297
218.08318	39309
218.10442	39261
218.12567	38882
218.14693	39208
218.16818	39036
218.18944	38806
218.21069	38792
218.23195	38871
218.25319	38718
218.27444	38532
218.2957	38108
218.31696	38028
218.3382	37990
218.35945	37769
218.38071	37602
218.40196	37535
218.4232	37380
218.44446	37094
218.46571	36974
218.48695	36951
218.50821	37061
218.52945	37088
218.5507	36935
218.57196	36880
218.5932	36582
218.61446	36629
218.6357	36410
218.65695	36374
218.67819	36250
218.69945	36017
218.72069	35831
218.74193	35913
218.76318	35676
218.78442	35513
218.80568	35203
218.82692	34995
218.84816	35018
218.86942	34805
218.89066	34953
218.9119	34992
218.93315	34918
218.95439	34645
218.97563	34286
218.99689	34046
219.01813	33778
219.03937	33346
219.06061	33266
219.08185	33084
219.1031	32968
219.12434	32733
219.14558	32946
219.16682	32871
219.18806	32797
219.2093	32600
219.23055	32561
219.25179	32210
219.27303	32451
219.29427	32441
219.31551	32536
219.33675	32363
219.35799	32161
219.37923	32143
219.40047	32183
219.42171	32138
219.44295	32124
219.46419	31886
219.48543	31799
219.50667	31718
219.52791	31554
219.54915	31478
219.57037	31418
219.59161	31365
219.61285	31152
219.63409	31244
219.65532	31315
219.67656	31119
219.6978	31000
219.71904	30848
219.74026	30905
219.76151	30935
219.78275	30867
219.80397	30758
219.82521	30865
219.84645	30681
219.86768	30593
219.88892	30358
219.91014	30317
219.93138	30193
219.95261	30079
219.97385	30092
219.99507	29954
220.01631	29935
220.03754	29781
220.05878	29727
220.08	29738
220.10124	29690
220.12247	29520
220.14371	29387
220.16493	29163
220.18616	29068
220.2074	28921
220.22862	28710
220.24985	28573
220.27109	28783
220.29231	28683
220.31354	28648
220.33476	28664
220.356	28491
220.37723	28133
220.39845	27903
220.41968	27785
220.4409	27636
220.46214	27610
220.48337	27582
220.50459	27426
220.52582	27331
220.54704	27282
220.56827	27276
220.58949	27383
220.61072	27372
220.63194	27214
220.65317	27095
220.67439	26969
220.69562	26821
220.71684	26797
220.73807	26703
220.75929	26717
220.78052	26534
220.80174	26414
220.82297	26395
220.84419	26275
220.8654	26293
220.88663	26208
220.90785	26160
220.92908	26095
220.9503	26014
220.97151	26097
220.99274	26087
221.01396	26099
221.03519	25981
221.0564	25819
221.07762	25803
221.09885	25728
221.12006	25558
221.14128	25582
221.16251	25375
221.18372	25369
221.20494	25362
221.22615	25360
221.24738	25389
221.2686	25260
221.28981	25226
221.31104	25168
221.33224	25015
221.35347	24863
221.37468	24683
221.3959	24614
221.41711	24480
221.43832	24344
221.45955	24335
221.48076	24385
221.50198	24392
221.52319	24356
221.5444	24201
221.56563	24129
221.58684	24030
221.60805	23931
221.62926	23896
221.65048	23875
221.67169	23870
221.6929	23704
221.71411	23681
221.73532	23604
221.75655	23458
221.77776	23337
221.79897	23178
221.82018	23018
221.84138	22526
