Date and Time:                Tue Apr 26 16:54:04.000 2022
Software Version:             4.31.30023.0
Temperature (C):              -40
Model:                        DU940P_BU2
Data Type:                    Counts
Acquisition Mode:             Single Scan
Trigger Mode:                 Internal
Exposure Time (secs):         30
Readout Mode:                 Full Vertical Binning
Horizontal binning:           1
Extended Dynamic Range:       off
Horizontally flipped:         false
Vertical Shift Speed (usecs): 14.51
Pixel Readout Rate (MHz):     3
Baseline Clamp:               ON
Clock Amplitude:              Normal
Output Amplifier:             High Capacity
Serial Number:                23634
Pre-Amplifier Gain:           1.000000
Spurious Noise Filter Mode:   No Filter
Photon counted:               false
Data Averaging Filter Mode:   No Filter
SR500i:
Serial Number:                
Wavelength (nm):              320
Grating Groove Density (l/mm):1199.47
Grating Blaze:                500
Output Flipper Port:          Direct
Accessory Output Port 1:      Off
Accessory Output Port 2:      Off
Accessory Output Port 3:      Off
Accessory Input Port:         On



298.5668	8700
298.58786	8298
298.60892	8433
298.62997	8452
298.65103	8507
298.67209	8505
298.69315	8468
298.7142	8542
298.73526	8609
298.75632	8692
298.77737	8663
298.79843	8676
298.81949	8708
298.84055	8800
298.8616	8797
298.88266	8800
298.90372	8860
298.92477	9075
298.9458	9180
298.96686	9158
298.98792	9084
299.00897	9094
299.03003	9165
299.05109	9212
299.07214	9178
299.0932	9165
299.11426	9263
299.13531	9292
299.15634	9322
299.1774	9409
299.19846	9547
299.21951	9657
299.24057	9715
299.26163	9774
299.28268	9817
299.30371	9749
299.32477	9758
299.34583	9824
299.36688	9956
299.38794	10069
299.40897	10050
299.43002	10136
299.45108	10216
299.47214	10373
299.49319	10335
299.51422	10342
299.53528	10302
299.55634	10349
299.57739	10399
299.59842	10475
299.61948	10585
299.64053	10701
299.66159	10677
299.68262	10694
299.70367	10645
299.72473	10681
299.74576	10626
299.76682	10662
299.78787	10757
299.8089	10787
299.82996	10762
299.85101	10660
299.87204	10739
299.8931	10710
299.91415	10672
299.93518	10646
299.95624	10696
299.97729	10687
299.99832	10639
300.01938	10579
300.04041	10550
300.06146	10562
300.08252	10519
300.10355	10535
300.1246	10501
300.14563	10580
300.16669	10478
300.18771	10435
300.20877	10393
300.22983	10341
300.25085	10248
300.27191	10234
300.29294	10184
300.314	10132
300.33502	10106
300.35608	10176
300.37711	10143
300.39816	10113
300.41919	10063
300.44025	10094
300.46127	10036
300.48233	9998
300.50336	10124
300.52441	10205
300.54544	10229
300.56647	10121
300.58752	10082
300.60855	10074
300.62961	10076
300.65063	10043
300.67169	10006
300.69272	10032
300.71375	10091
300.7348	10028
300.75583	9924
300.77686	9895
300.79791	9912
300.81894	9895
300.84	9879
300.86102	9849
300.88205	9985
300.90311	10059
300.92413	9958
300.94516	9889
300.96622	9863
300.98724	9932
301.00827	9929
301.0293	9897
301.05035	9991
301.07138	10016
301.09241	9956
301.11346	9860
301.13449	9852
301.15552	9745
301.17654	9632
301.1976	9725
301.21863	9735
301.23965	9707
301.26068	9588
301.28174	9566
301.30276	9487
301.32379	9511
301.34482	9428
301.36584	9396
301.3869	9346
301.40793	9264
301.42896	9183
301.44998	9176
301.47101	9083
301.49203	9112
301.51309	9150
301.53412	9112
301.55515	9072
301.57617	9021
301.5972	9048
301.61823	8959
301.63925	8884
301.66028	8831
301.68134	8704
301.70236	8740
301.72339	8714
301.74442	8647
301.76544	8540
301.78647	8534
301.8075	8507
301.82852	8469
301.84955	8419
301.87057	8360
301.8916	8313
301.91263	8259
301.93365	8246
301.95468	8277
301.97571	8302
301.99673	8354
302.01776	8304
302.03879	8242
302.05981	8223
302.08084	8208
302.10187	8135
302.12289	8081
302.14392	8056
302.16495	8056
302.18597	7997
302.207	7989
302.22803	7960
302.24905	7888
302.27005	7940
302.29108	7966
302.3121	8001
302.33313	7987
302.35416	7987
302.37518	7876
302.39621	7894
302.41724	7940
302.43826	7980
302.45926	8026
302.48029	8095
302.50131	8138
302.52234	8074
302.54337	8050
302.56439	8087
302.58539	8063
302.60641	8131
302.62744	8170
302.64847	8140
302.66949	8179
302.69049	8174
302.71152	8198
302.73254	8216
302.75357	8243
302.77457	8187
302.79559	8230
302.81662	8308
302.83765	8313
302.85864	8398
302.87967	8468
302.9007	8505
302.92169	8498
302.94272	8620
302.96375	8755
302.98474	8850
303.00577	8844
303.02679	9007
303.04782	9100
303.06882	9090
303.08984	9085
303.11084	9142
303.13187	9274
303.15289	9323
303.17389	9327
303.19492	9363
303.21594	9506
303.23694	9605
303.25797	9686
303.27896	9771
303.29999	9889
303.32101	9985
303.34201	10031
303.36304	10033
303.38403	10161
303.40506	10262
303.42606	10334
303.44708	10491
303.46808	10646
303.48911	10820
303.5101	10802
303.53113	10899
303.55212	10981
303.57315	11015
303.59415	11129
303.61517	11215
303.63617	11372
303.6572	11386
303.67819	11449
303.69922	11570
303.72021	11767
303.74124	11886
303.76224	11932
303.78326	11940
303.80426	12034
303.82526	12051
303.84628	12082
303.86728	12030
303.88831	12158
303.9093	12239
303.9303	12261
303.95132	12245
303.97232	12266
303.99332	12326
304.01434	12350
304.03534	12415
304.05634	12453
304.07736	12412
304.09836	12346
304.11935	12335
304.14038	12397
304.16138	12411
304.18237	12286
304.2034	12194
304.2244	12138
304.24539	12065
304.26642	12062
304.28741	12041
304.30841	12138
304.32941	12116
304.35043	12029
304.37143	11922
304.39243	11968
304.41342	11938
304.43442	11896
304.45544	11843
304.47644	11799
304.49744	11795
304.51843	11684
304.53943	11603
304.56046	11589
304.58145	11605
304.60245	11451
304.62344	11384
304.64444	11423
304.66544	11388
304.68646	11295
304.70746	11098
304.72845	10980
304.74945	10896
304.77045	10930
304.79144	10847
304.81244	10893
304.83344	10902
304.85443	10824
304.87546	10702
304.89645	10784
304.91745	10772
304.93845	10762
304.95944	10709
304.98044	10708
305.00143	10671
305.02243	10687
305.04343	10598
305.06442	10622
305.08542	10560
305.10641	10510
305.12741	10456
305.14841	10546
305.1694	10586
305.1904	10580
305.2114	10578
305.23239	10608
305.25339	10554
305.27438	10570
305.29538	10625
305.31638	10629
305.33737	10704
305.35834	10733
305.37933	10711
305.40033	10718
305.42133	10793
305.44232	10732
305.46332	10758
305.48431	10804
305.50531	10841
305.52631	10913
305.54727	10852
305.56827	10809
305.58926	10845
305.61026	10901
305.63126	10967
305.65225	11020
305.67322	11092
305.69421	11041
305.71521	11051
305.73621	11091
305.7572	11154
305.77817	11255
305.79916	11251
305.82016	11314
305.84116	11399
305.86212	11451
305.88312	11431
305.90411	11445
305.92511	11554
305.94608	11544
305.96707	11521
305.98807	11565
306.00906	11612
306.03003	11578
306.05103	11525
306.07202	11640
306.09299	11731
306.11398	11754
306.13498	11852
306.15594	11867
306.17694	11879
306.19794	11962
306.2189	11996
306.2399	12132
306.26086	12228
306.28186	12322
306.30286	12414
306.32382	12409
306.34482	12489
306.36581	12430
306.38678	12502
306.40778	12516
306.42874	12606
306.44974	12724
306.4707	12733
306.4917	12729
306.51266	12767
306.53366	12820
306.55466	12830
306.57562	12975
306.59662	13209
306.61758	13315
306.63858	13325
306.65955	13334
306.68054	13387
306.70151	13448
306.72247	13454
306.74347	13643
306.76443	13794
306.78543	13871
306.8064	13840
306.82739	13873
306.84836	14020
306.86935	13962
306.89032	13974
306.91129	14053
306.93228	14149
306.95325	14230
306.97424	14219
306.99521	14087
307.01617	14081
307.03717	14128
307.05814	14139
307.0791	14232
307.1001	14175
307.12106	14134
307.14203	14104
307.16302	14156
307.18399	14117
307.20496	14174
307.22595	14263
307.24692	14291
307.26788	14274
307.28888	14241
307.30984	14294
307.33081	14214
307.35178	14046
307.37277	14008
307.39374	13971
307.4147	13987
307.43567	13877
307.45667	13755
307.47763	13693
307.4986	13618
307.51956	13648
307.54053	13570
307.56152	13495
307.58249	13479
307.60345	13435
307.62442	13296
307.64539	13339
307.66635	13316
307.68735	13455
307.70831	13335
307.72928	13319
307.75024	13192
307.77121	13083
307.79218	12997
307.81314	12857
307.83411	12815
307.8551	12716
307.87607	12742
307.89703	12668
307.918	12581
307.93896	12462
307.95993	12356
307.9809	12282
308.00186	12330
308.02283	12319
308.04379	12254
308.06476	12178
308.08572	12092
308.10669	12012
308.12766	11934
308.14862	11982
308.16959	12033
308.19055	12061
308.21152	12026
308.23248	11918
308.25345	11853
308.27441	11828
308.29538	11772
308.31635	11742
308.33731	11671
308.35828	11642
308.37924	11639
308.40021	11472
308.42114	11474
308.44211	11447
308.46307	11345
308.48404	11308
308.505	11161
308.52597	11201
308.54694	11166
308.5679	11227
308.58884	11222
308.6098	11173
308.63077	11125
308.65173	11158
308.6727	11298
308.69366	11314
308.7146	11244
308.73557	11294
308.75653	11286
308.7775	11241
308.79846	11309
308.8194	11131
308.84036	11300
308.86133	11243
308.88229	11133
308.90323	11050
308.92419	11189
308.94516	11272
308.96613	11253
308.98706	11312
309.00803	11339
309.02899	11342
309.04993	11326
309.07089	11270
309.09186	11257
309.11279	11266
309.13376	11339
309.15472	11370
309.17566	11454
309.19662	11547
309.21759	11533
309.23853	11482
309.25949	11489
309.28043	11474
309.30139	11560
309.32236	11695
309.34329	11714
309.36426	11790
309.38519	11729
309.40616	11800
309.42712	11902
309.44806	11989
309.46902	12109
309.48996	12131
309.51093	12154
309.53186	12155
309.55283	12190
309.57376	12278
309.59473	12352
309.61566	12531
309.63663	12572
309.65756	12562
309.67853	12572
309.69946	12629
309.72043	12734
309.74136	12809
309.76233	12857
309.78326	12843
309.8042	12959
309.82516	12973
309.8461	13103
309.86707	13200
309.888	13209
309.90897	13145
309.9299	13161
309.95084	13147
309.9718	13275
309.99274	13337
310.01367	13574
310.03464	13611
310.05557	13615
310.07651	13619
310.09747	13750
310.11841	13824
310.13934	13855
310.16031	13861
310.18124	13884
310.20218	13956
310.22314	14027
310.24408	14079
310.26501	14136
310.28595	14149
310.30692	14035
310.32785	14161
310.34879	14320
310.36972	14301
310.39069	14335
310.41162	14291
310.43256	14258
310.45349	14283
310.47446	14367
310.49539	14356
310.51633	14444
310.53726	14425
310.5582	14485
310.57913	14578
310.6001	14693
310.62103	14848
310.64197	14921
310.6629	14956
310.68384	14949
310.70477	14955
310.72571	14926
310.74667	15072
310.76761	15079
310.78854	15197
310.80948	15207
310.83041	15191
310.85135	15288
310.87228	15410
310.89322	15622
310.91415	15557
310.93509	15489
310.95602	15509
310.97696	15514
310.99789	15664
311.01883	15669
311.03976	15720
311.0607	15736
311.08163	15699
311.10257	15795
311.1235	15745
311.14444	15870
311.16537	15801
311.18631	15821
311.20724	15901
311.22818	15963
311.24911	16001
311.27005	16023
311.29099	16070
311.31192	16087
311.33286	16171
311.35379	16112
311.37469	16112
311.39563	16073
311.41656	15957
311.4375	16015
311.45844	16080
311.47937	16113
311.50031	16078
311.52124	16138
311.54214	16138
311.56308	16210
311.58401	16203
311.60495	16266
311.62589	16242
311.64679	16164
311.66772	16157
311.68866	16118
311.70959	16090
311.73053	16065
311.75143	16102
311.77237	16202
311.7933	16136
311.81424	16017
311.83514	15838
311.85608	15857
311.87701	15815
311.89792	15843
311.91885	15863
311.93979	15993
311.96072	16131
311.98163	16155
312.00256	16089
312.0235	16087
312.0444	16061
312.06534	16066
312.08627	16065
312.10718	16031
312.12811	16102
312.14902	15988
312.16995	15910
312.19089	15807
312.21179	15652
312.23273	15717
312.25363	15824
312.27457	15959
312.2955	16088
312.31641	16010
312.33734	15863
312.35825	15749
312.37918	15804
312.40009	15832
312.42102	15926
312.44193	16044
312.46286	16108
312.48376	16100
312.5047	16000
312.5256	15916
312.54654	16052
312.56744	16043
312.58838	16063
312.60928	16096
312.63022	16105
312.65112	16066
312.67206	16111
312.69296	16037
312.71387	16032
312.7348	16018
312.75571	16062
312.77664	16102
312.79755	16086
312.81845	16040
312.83939	16066
312.86029	16159
312.88123	16169
312.90213	16252
312.92303	16415
312.94397	16483
312.96487	16498
312.98578	16568
313.00671	16590
313.02762	16612
313.04852	16458
313.06943	16491
313.09036	16490
313.11127	16594
313.13217	16585
313.15311	16527
313.17401	16433
313.19492	16577
313.21582	16572
313.23676	16583
313.25766	16710
313.27856	16714
313.29947	16657
313.32037	16674
313.34131	16771
313.36221	16991
313.38312	17037
313.40402	17114
313.42493	17127
313.44586	17123
313.46677	17103
313.48767	17035
313.50858	16969
313.52948	17048
313.55038	17026
313.57129	16993
313.59222	16967
313.61313	16965
313.63403	16873
313.65494	16893
313.67584	16971
313.69675	17036
313.71765	16984
313.73856	16992
313.75946	16975
313.78036	16844
313.80127	16758
313.82217	16757
313.84308	16809
313.86398	16954
313.88489	16999
313.90579	17015
313.9267	16839
313.9476	16745
313.96851	16719
313.98941	16645
314.01031	16556
314.03122	16549
314.05212	16308
314.07303	16163
314.09393	16172
314.11484	16043
314.13574	15878
314.15665	15698
314.17755	15524
314.19846	15450
314.21933	15381
314.24023	15407
314.26114	15464
314.28204	15318
314.30295	15172
314.32385	15053
314.34476	15144
314.36563	15111
314.38654	14975
314.40744	14864
314.42834	14773
314.44925	14820
314.47012	14694
314.49103	14601
314.51193	14467
314.53284	14436
314.55374	14358
314.57462	14163
314.59552	14170
314.61642	14154
314.63733	14161
314.6582	14086
314.67911	14088
314.70001	14062
314.72089	14019
314.74179	13850
314.7627	13781
314.7836	13715
314.80447	13646
314.82538	13634
314.84628	13730
314.86716	13772
314.88806	13759
314.90897	13543
314.92984	13561
314.95074	13450
314.97162	13481
314.99252	13528
315.01343	13557
315.0343	13565
315.05521	13508
315.07608	13468
315.09698	13497
315.11786	13613
315.13876	13664
315.15967	13622
315.18054	13744
315.20145	13695
315.22232	13619
315.24323	13604
315.2641	13625
315.285	13660
315.30588	13788
315.32678	13665
315.34766	13747
315.36856	13850
315.38943	13940
315.41034	13900
315.43121	13954
315.45212	14008
315.47299	14057
315.49387	14142
315.51477	14152
315.53564	14228
315.55655	14332
315.57742	14225
315.5983	14310
315.6192	14185
315.64008	14314
315.66098	14444
315.68185	14509
315.70273	14557
315.72363	14622
315.74451	14659
315.76538	14680
315.78629	14780
315.80716	14845
315.82803	14825
315.84894	14894
315.86981	14964
315.89069	14973
315.91156	14999
315.93246	14950
315.95334	15136
315.97421	15217
315.99509	15180
316.01599	15201
316.03687	15305
316.05774	15310
316.07861	15254
316.09952	15304
316.12039	15234
316.14127	15212
316.16214	15130
316.18301	15008
316.20389	15037
316.22479	14986
316.24567	15016
316.26654	15115
316.28741	15189
316.30829	15209
316.32916	15210
316.35004	15149
316.37094	15167
316.39182	15215
316.41269	15282
316.43356	15371
316.45444	15486
316.47531	15553
316.49619	15463
316.51706	15415
316.53793	15551
316.55881	15653
316.57968	15658
316.60056	15701
316.62143	15656
316.6423	15700
316.66318	15679
316.68405	15523
316.70493	15565
316.7258	15611
316.74667	15570
316.76755	15683
316.78842	15758
316.8093	15835
316.83017	15849
316.85104	15872
316.87192	15888
316.89279	15976
316.91367	15973
316.93454	16006
316.95538	16124
316.97626	16315
316.99713	16341
317.01801	16338
317.03888	16372
317.05975	16305
317.08063	16348
317.1015	16392
317.12234	16527
317.14322	16605
317.16409	16494
317.18497	16598
317.20584	16685
317.22668	16689
317.24756	16827
317.26843	16992
317.28931	17089
317.31015	17115
317.33102	17196
317.3519	17248
317.37277	17395
317.39362	17618
317.41449	17621
317.43536	17817
317.45624	18097
317.47708	18275
317.49796	18322
317.51883	18280
317.53967	18243
317.56055	18358
317.58142	18521
317.60226	18672
317.62314	19001
317.64401	19224
317.66486	19413
317.68573	19570
317.7066	19718
317.72745	19876
317.74832	20092
317.76917	20211
317.79004	20499
317.81091	20595
317.83176	20705
317.85263	20857
317.87347	20937
317.89435	21059
317.91519	21161
317.93607	21404
317.95691	21797
317.97778	22104
317.99863	22154
318.0195	22162
318.04034	22237
318.06122	22517
318.08206	22836
318.10294	23054
318.12378	23309
318.14465	23533
318.1655	23633
318.18637	23721
318.20721	23697
318.22806	23780
318.24893	23841
318.26978	23827
318.29065	24024
318.31149	24013
318.33234	24003
318.35321	24044
318.37405	23995
318.39493	24005
318.41577	23927
318.43661	23714
318.45749	23757
318.47833	23622
318.49918	23420
318.52005	23389
318.54089	23252
318.56174	23160
318.58258	23246
318.60345	23254
318.6243	23141
318.64514	22993
318.66602	22781
318.68686	22678
318.7077	22518
318.72855	22267
318.74939	22042
318.77026	21919
318.79111	21783
318.81195	21459
318.83279	21132
318.85364	20914
318.87451	20707
318.89536	20495
318.9162	20243
318.93704	19936
318.95789	19792
318.97873	19486
318.9996	19329
319.02045	19107
319.04129	19102
319.06213	18983
319.08298	18796
319.10382	18465
319.12466	18350
319.14551	18094
319.16635	17912
319.18719	17655
319.20807	17577
319.22891	17374
319.24976	17218
319.2706	17108
319.29144	16881
319.31229	16810
319.33313	16596
319.35397	16604
319.37482	16563
319.39566	16405
319.4165	16285
319.43735	16169
319.45819	16004
319.47903	15876
319.49985	15763
319.52069	15763
319.54153	15792
319.56238	15855
319.58322	15757
319.60406	15695
319.62491	15662
319.64575	15582
319.6666	15499
319.68744	15489
319.70825	15390
319.7291	15316
319.74994	15199
319.77078	15144
319.79163	15098
319.81247	15001
319.83331	14931
319.85413	14989
319.87497	15067
319.89581	15143
319.91666	15118
319.9375	15091
319.95831	15042
319.97916	14949
320	14999
320.02084	15140
320.04166	15116
320.0625	15098
320.08334	15177
320.10416	15320
320.125	15433
320.14584	15339
320.16669	15394
320.1875	15410
320.20834	15512
320.22919	15500
320.25	15477
320.27084	15601
320.29169	15721
320.3125	15803
320.33334	16039
320.35416	16143
320.375	16289
320.39584	16209
320.41666	16196
320.4375	16259
320.45831	16433
320.47916	16512
320.5	16484
320.52081	16717
320.54166	16876
320.56247	16856
320.58331	16825
320.60413	16980
320.62497	17035
320.64578	17151
320.66663	17325
320.68744	17507
320.70828	17524
320.7291	17541
320.74994	17691
320.77075	17898
320.7916	18061
320.81241	18087
320.83325	18195
320.85406	18279
320.87488	18392
320.89572	18461
320.91653	18429
320.93738	18594
320.95819	18769
320.979	18848
320.99985	18778
321.02066	18846
321.04147	19016
321.06232	19120
321.08313	19232
321.10397	19187
321.12479	19300
321.1456	19377
321.16641	19353
321.18726	19400
321.20807	19520
321.22888	19597
321.24973	19485
321.27054	19468
321.29135	19345
321.31216	19400
321.33301	19517
321.35382	19700
321.37463	19655
321.39545	19559
321.41629	19546
321.4371	19598
321.45792	19684
321.47873	19641
321.49954	19555
321.52039	19607
321.5412	19590
321.56201	19503
321.58282	19400
321.60364	19405
321.62445	19320
321.64526	19200
321.66611	19176
321.68692	19253
321.70773	19349
321.72855	19288
321.74936	19294
321.77017	19236
321.79099	19308
321.8118	19141
321.83261	18936
321.85342	18803
321.87424	18722
321.89505	18695
321.91586	18731
321.93668	18892
321.95749	19064
321.9783	18984
321.99911	18805
322.01993	18800
322.04074	18721
322.06155	18762
322.08237	18780
322.10318	18876
322.12399	19090
322.14481	19144
322.16562	19000
322.18643	19129
322.20724	19242
322.22806	19304
322.24887	19202
322.26968	19224
322.29047	19248
322.31128	19223
322.33209	19169
322.35291	19080
322.37372	19105
322.39453	19062
322.41531	19075
322.43613	19143
322.45694	19351
322.47775	19349
322.49857	19441
322.51938	19404
322.54016	19487
322.56097	19540
322.58179	19550
322.6026	19574
322.62338	19676
322.6442	19692
322.66501	19591
322.68582	19592
322.7066	19565
322.72742	19491
322.74823	19341
322.76901	19457
322.78983	19507
322.81064	19450
322.83142	19402
322.85223	19365
322.87305	19353
322.89383	19431
322.91464	19420
322.93546	19415
322.95624	19353
322.97705	19360
322.99783	19143
323.01865	19110
323.03946	19060
323.06024	19165
323.08105	19133
323.10184	19261
323.12265	19309
323.14343	19280
323.16425	19277
323.18503	19044
323.20584	18869
323.22662	18831
323.24744	18797
323.26822	18755
323.28903	18835
323.30981	18847
323.33063	18776
323.35141	18687
323.37222	18621
323.39301	18686
323.41382	18569
323.4346	18613
323.45541	18521
323.4762	18537
323.49698	18459
323.51779	18388
323.53857	18288
323.55939	18188
323.58017	18157
323.60095	18211
323.62177	18390
323.64255	18394
323.66333	18275
323.68414	18153
323.70493	18081
323.72571	18189
323.74652	18361
323.7673	18375
323.78809	18443
323.8089	18467
323.82968	18489
323.85046	18434
323.87125	18461
323.89206	18435
323.91284	18447
323.93362	18427
323.95441	18542
323.97522	18600
323.996	18499
324.01678	18503
324.03757	18475
324.05835	18463
324.07913	18457
324.09995	18437
324.12073	18444
324.14151	18330
324.16229	18354
324.18307	18340
324.20386	18370
324.22467	18396
324.24545	18573
324.26624	18723
324.28702	18771
324.3078	18705
324.32858	18762
324.34937	18779
324.37015	18760
324.39093	18653
324.41171	18713
324.4325	18837
324.45328	18927
324.47406	18901
324.49484	18854
324.51563	18899
324.53641	18955
324.55719	19080
324.57797	19074
324.59875	19112
324.61954	19145
324.64032	19165
324.6611	19153
324.68188	19325
324.70267	19501
324.72345	19625
324.74423	19647
324.76501	19731
324.7858	19756
324.80658	19708
324.82733	19684
324.84811	19706
324.8689	19835
324.88968	19916
324.91046	19952
324.93124	19964
324.95203	19922
324.97278	20020
324.99356	20169
325.01434	20298
325.03513	20310
325.05591	20392
325.07666	20467
325.09744	20548
325.11823	20407
325.13901	20445
325.15976	20620
325.18054	20724
325.20132	20977
325.22211	20931
325.24286	20935
325.26364	21019
325.28442	21054
325.30518	21001
325.32596	21067
325.34674	21096
325.36749	21115
325.38828	21083
325.40906	21059
325.42981	21012
325.45059	20923
325.47137	20939
325.49213	20821
325.51291	20688
325.53366	20669
325.55444	20811
325.57523	21012
325.59598	21025
325.61676	20966
325.63751	21003
325.65829	21105
325.67905	21274
325.69983	21205
325.72058	21126
325.74136	21206
325.76215	21338
325.7829	21318
325.80368	21286
325.82443	21250
325.84518	21381
325.86597	21219
325.88672	21190
325.9075	21237
325.92825	21310
325.94904	21277
325.96979	21457
325.99057	21397
326.01132	21435
326.03207	21379
326.05286	21213
326.07361	21075
326.09439	21109
326.11514	21159
326.13589	21134
326.15668	21191
326.17743	21325
326.19818	21267
326.21896	21192
326.23972	21186
326.26047	21287
326.28125	21216
326.302	21214
326.32275	21367
326.34351	21341
326.36429	21372
326.38504	21241
326.40579	21307
326.42654	21527
326.44733	21527
326.46808	21613
326.48883	21586
326.50958	21642
326.53033	21567
326.55112	21495
326.57187	21505
326.59262	21520
326.61337	21571
326.63412	21656
326.65488	21692
326.67566	21856
326.69641	21829
326.71716	21833
326.73792	21856
326.75867	21854
326.77942	21863
326.80017	21898
326.82092	21872
326.84167	22012
326.86246	22054
326.88321	22022
326.90396	21848
326.92471	21819
326.94547	21906
326.96622	22059
326.98697	22138
327.00772	22360
327.02847	22204
327.04922	22130
327.06998	22063
327.09073	22096
327.11148	22204
327.13223	22263
327.15298	22246
327.17371	22288
327.19446	22213
327.21521	22162
327.23596	22256
327.25671	22337
327.27747	22425
327.29822	22312
327.31897	22414
327.33972	22576
327.36047	22550
327.3812	22574
327.40195	22590
327.4227	22514
327.44345	22554
327.4642	22451
327.48495	22266
327.50568	22237
327.52643	22273
327.54718	22263
327.56793	22425
327.58865	22586
327.60941	22608
327.63016	22589
327.65091	22545
327.67163	22570
327.69238	22529
327.71313	22702
327.73389	22968
327.75461	23117
327.77536	23247
327.79611	23244
327.81683	23178
327.83759	23284
327.85834	23417
327.87906	23544
327.89981	23609
327.92056	23604
327.94128	23631
327.96204	23495
327.98276	23350
328.00351	23193
328.02426	23226
328.04498	23241
328.06573	23466
328.08646	23718
328.10721	23789
328.12796	23862
328.14868	23824
328.16943	23750
328.19016	23841
328.21091	24003
328.23163	24133
328.25238	24144
328.2731	24161
328.29385	24010
328.31458	24041
328.33533	24149
328.35605	24001
328.37677	23808
328.39752	23815
328.41824	23799
328.439	23821
328.45972	23783
328.48047	23706
328.50119	23678
328.52191	23678
328.54266	23767
328.56339	23661
328.58411	23767
328.60486	23612
328.62558	23406
328.6463	23325
328.66705	23263
328.68777	23334
328.7085	23438
328.72925	23392
328.74997	23368
328.77069	23335
328.79144	23285
328.81216	23106
328.83289	22900
328.85361	22726
328.87436	22663
328.89508	22579
328.9158	22554
328.93652	22490
328.95728	22512
328.978	22402
328.99872	22293
329.01944	22209
329.04016	22072
329.06088	22090
329.08163	22023
329.10236	21997
329.12308	21789
329.1438	21346
329.16452	20888
329.18524	20590
329.20596	20220
329.22668	20050
329.24744	20170
329.26816	20237
329.28888	20106
329.3096	19924
329.33032	19780
329.35104	19606
329.37177	19626
329.39249	19848
329.41321	19944
329.43393	19984
329.45465	19984
329.47537	20001
329.49609	19915
329.51682	19993
329.53754	19896
329.55826	20039
329.57898	20076
329.5997	20149
329.62042	20108
329.64114	20092
329.66187	20053
329.68256	20035
329.70328	19936
329.724	19925
329.74472	19995
329.76544	20034
329.78616	20131
329.80688	20102
329.82761	20130
329.8483	20170
329.86902	20306
329.88974	20509
329.91046	20794
329.93118	20866
329.95187	20671
329.9726	20736
329.99332	20981
330.01404	20825
330.03476	20764
330.05545	20761
330.07617	20833
330.09689	20997
330.11758	20889
330.13831	20798
330.15903	20929
330.17975	21157
330.20044	21184
330.22116	21295
330.24188	21232
330.26257	21290
330.28329	21325
330.30402	21469
330.32471	21633
330.34543	21671
330.36615	21818
330.38684	21867
330.40756	21881
330.42825	21818
330.44897	21715
330.4697	21655
330.49039	21692
330.51111	21680
330.5318	21771
330.55252	21750
330.57321	21767
330.59393	21764
330.61462	21768
330.63535	21839
330.65604	21971
330.67676	21998
330.69745	21877
330.71817	21866
330.73886	21724
330.75958	21582
330.78027	21598
330.80099	21672
330.82169	21804
330.84238	21989
330.8631	21928
330.88379	21808
330.90451	21796
330.9252	21696
330.94589	21444
330.96661	21396
330.9873	21318
331.00803	21292
331.02872	21049
331.04941	20982
331.07013	20768
331.09082	20713
331.11151	20440
331.1322	20103
331.15292	20088
331.17361	20127
331.19431	20165
331.21503	20079
331.23572	20026
331.25641	19834
331.2771	19797
331.29782	19910
331.31851	19895
331.3392	19682
331.35989	19565
331.38058	19495
331.40131	19436
331.422	19409
331.44269	19264
331.46338	19137
331.48407	19076
331.50476	18981
331.52548	18777
331.54617	18722
331.56686	18719
331.58755	18723
331.60825	18647
331.62894	18632
331.64963	18637
331.67032	18398
331.69101	18227
331.7117	18095
331.73239	18054
331.75308	18044
331.7738	18081
331.79449	18052
331.81519	18084
331.83588	18081
331.85657	18059
331.87726	17980
331.89795	18055
331.91861	18044
331.9393	18088
331.95999	18126
331.98068	18167
332.00137	18109
332.02206	18192
332.04276	18187
332.06345	18335
332.08414	18345
332.10483	18374
332.12552	18551
332.14621	18536
332.16687	18564
332.18756	18573
332.20825	18702
332.22894	18835
332.24963	18879
332.27032	18947
332.29099	19089
332.31168	19226
332.33237	19372
332.35306	19448
332.37375	19532
332.39441	19633
332.4151	19846
332.43579	19910
332.45648	20097
332.47714	20259
332.49783	20427
332.51852	20495
332.53918	20475
332.55988	20605
332.58057	20744
332.60126	20968
332.62192	21225
332.64261	21407
332.6633	21508
332.68396	21616
332.70465	21867
332.72531	22014
332.746	22163
332.76669	22370
332.78735	22445
332.80804	22650
332.8287	22848
332.8494	22950
332.87009	23165
332.89075	23368
332.91144	23559
332.9321	23749
332.95279	23942
332.97345	24309
332.99414	24532
333.0148	24666
333.03549	24699
333.05615	24859
333.07684	25004
333.0975	25011
333.11819	25018
333.13885	25094
333.15955	25355
333.18021	25584
333.20087	25829
333.22156	25997
333.24222	26148
333.26291	26198
333.28357	26338
333.30423	26526
333.32492	26711
333.34558	26979
333.36624	27389
333.38693	27745
333.40759	27846
333.42825	27810
333.44894	27780
333.4696	28069
333.49026	28309
333.51096	28445
333.53162	28587
333.55228	28498
333.57294	28548
333.59363	28321
333.61429	28161
333.63495	28090
333.65561	28057
333.6763	28121
333.69696	28432
333.71762	28549
333.73828	28549
333.75894	28457
333.77963	28282
333.80029	28355
333.82095	28493
333.84161	28439
333.86227	28401
333.88293	28362
333.90359	28274
333.92429	28061
333.94495	27923
333.96561	27840
333.98627	27581
334.00693	27333
334.02759	27303
334.04825	27134
334.06891	27064
334.08957	26826
334.11023	26761
334.13089	26533
334.15155	26476
334.17221	26286
334.19287	26323
334.21353	26235
334.23419	25923
334.25485	25625
334.27551	25404
334.29617	25254
334.31683	25167
334.33749	25125
334.35815	25006
334.37881	24940
334.39948	24821
334.42014	24701
334.44077	24382
334.46143	24069
334.48209	23773
334.50275	23660
334.52341	23761
334.54407	23651
334.56473	23591
334.58536	23360
334.60602	23223
334.62668	23152
334.64734	22877
334.668	22849
334.68863	22659
334.70929	22620
334.72995	22552
334.75061	22481
334.77124	22309
334.7919	22058
334.81256	21899
334.83322	21669
334.85385	21692
334.87451	21876
334.89517	21812
334.9158	21731
334.93646	21444
334.95712	21277
334.97775	21223
334.99841	21235
335.01907	21432
335.0397	21516
335.06036	21614
335.08102	21593
335.10165	21525
335.12231	21430
335.14294	21455
335.1636	21432
335.18423	21576
335.2049	21501
335.22556	21495
335.24619	21534
335.26685	21465
335.28748	21499
335.30814	21466
335.32877	21364
335.34943	21298
335.37006	21310
335.39072	21240
335.41135	21238
335.43198	21381
335.45264	21543
335.47327	21507
335.49393	21623
335.51456	21895
335.53522	21987
335.55585	22013
335.57648	21865
335.59714	22093
335.61777	22212
335.63843	22223
335.65906	22161
335.67969	22216
335.70035	22460
335.72098	22526
335.74161	22509
335.76227	22397
335.7829	22542
335.80353	22744
335.82416	22817
335.84482	22810
335.86545	23024
335.88608	23127
335.90671	23231
335.92737	23273
335.948	23515
335.96863	23761
335.98926	23901
336.00992	24009
336.03055	24165
336.05118	24198
336.07181	24207
336.09244	24296
336.11307	24421
336.13373	24699
336.15436	24833
336.17499	24966
336.19562	25098
336.21625	25143
336.23688	25185
336.25751	25362
336.27814	25690
336.29877	25886
336.31943	26126
336.34006	26230
336.36069	26183
336.38132	26267
336.40195	26475
336.42258	26710
336.44321	26954
336.46384	27248
336.48447	27379
336.5051	27496
336.52573	27558
336.54636	27508
336.56699	27615
336.58762	27763
336.60822	27850
336.62885	27826
336.64948	27775
336.6701	27901
336.69073	27935
336.71136	27914
336.73199	27702
336.75262	27509
336.77325	27510
336.79388	27879
336.81448	27907
336.83511	27985
336.85574	27959
336.87637	27786
336.897	27904
336.9176	28063
336.93823	28139
336.95886	28069
336.97949	27963
337.00012	28099
337.02072	27973
337.04135	27933
337.06198	27795
337.08261	27731
337.10321	27678
337.12384	27358
337.14447	27223
337.16507	27142
337.1857	27303
337.20633	27241
337.22693	27000
337.24756	26966
337.26819	26763
337.28879	26677
337.30942	26485
337.33005	26403
337.35065	26356
337.37128	26204
337.39188	26169
337.41251	26038
337.43314	26012
337.45374	25864
337.47437	25798
337.49496	25661
337.51559	25713
337.53619	25601
337.55682	25575
337.57742	25576
337.59805	25566
337.61865	25464
337.63928	25520
337.65988	25545
337.68051	25564
337.70111	25478
337.72174	25435
337.74234	25327
337.76294	25071
337.78357	24950
337.80417	24880
337.8248	24992
337.8454	25091
337.866	24983
337.88663	24856
337.90723	24883
337.92786	25054
337.94846	25172
337.96906	25042
337.98969	25079
338.01028	24932
338.03088	25037
338.05148	24955
338.07211	25019
338.09271	25034
338.11331	25172
338.13394	25073
338.15454	24935
338.17514	24888
338.19574	24800
338.21637	24822
338.23697	24986
338.25757	24977
338.27817	24915
338.29877	24925
338.31937	25131
338.34	25246
338.3606	25330
338.3812	25370
338.40179	25328
338.42239	25218
338.44299	25161
338.46359	25128
338.48422	25055
338.50482	25151
338.52542	25216
338.54602	25209
338.56662	25408
338.58722	25579
338.60782	25720
338.62842	25711
338.64902	25693
338.66962	25727
338.69022	25682
338.71082	25712
338.73141	25718
338.75201	25770
338.77261	25682
338.79321	25880
338.81381	26083
338.83441	26263
338.85501	26341
338.87561	26315
338.89621	26389
338.91681	26355
338.93738	26529
338.95798	26781
338.97858	27096
338.99918	27144
339.01978	27305
339.04037	27214
339.06097	27367
339.08157	27562
339.10214	27737
339.12274	27907
339.14334	28155
339.16394	28103
339.18454	27987
339.20511	27826
339.22571	27549
339.24631	27564
339.26691	27728
339.28748	27916
339.30807	28265
339.32867	28650
339.34927	28880
339.36984	28694
339.39044	28602
339.41104	28814
339.43161	29106
339.45221	29229
339.47281	29360
339.49338	29488
339.51398	29503
339.53458	29355
339.55515	29412
339.57574	29426
339.59631	29294
339.61691	29312
339.63751	29445
339.65808	29410
339.67868	29695
339.69925	29648
339.71985	29741
339.74042	29505
339.76102	29631
339.78159	29708
339.80219	29769
339.82275	29886
339.84335	29829
339.86392	29565
339.88452	29534
339.90509	29719
339.92569	29733
339.94626	29753
339.96686	29831
339.98743	29887
340.008	29981
340.02859	29762
340.04916	29639
340.06976	29607
340.09033	29413
340.1109	29469
340.1315	29715
340.15207	29677
340.17264	29550
340.19324	29562
340.21381	29468
340.23438	29279
340.25497	29227
340.27554	29203
340.29611	29205
340.31668	29225
340.33728	29379
340.35785	29403
340.37842	29322
340.39899	29153
340.41959	28861
340.44016	28717
340.46072	29034
340.48129	29049
340.50189	28916
340.52246	28626
340.54303	28540
340.5636	28350
340.58417	28440
340.60474	28484
340.62531	28597
340.6459	28708
340.66647	28696
340.68704	28573
340.70761	28683
340.72818	28560
340.74875	28659
340.76932	28690
340.78989	28739
340.81046	28691
340.83102	28566
340.85159	28481
340.87216	28514
340.89273	28505
340.9133	28438
340.93387	28289
340.95444	28176
340.97501	28192
340.99557	28121
341.01614	27982
341.03671	28004
341.05728	28074
341.07785	28018
341.09842	28200
341.11899	28413
341.13956	28441
341.16013	28339
341.18066	28043
341.20123	27790
