Date and Time:                Wed May 25 13:08:05.000 2022
Software Version:             4.31.30023.0
Temperature (C):              -40
Model:                        DU940P_BU2
Data Type:                    Counts
Acquisition Mode:             Single Scan
Trigger Mode:                 Internal
Exposure Time (secs):         180
Readout Mode:                 Full Vertical Binning
Horizontal binning:           1
Extended Dynamic Range:       off
Horizontally flipped:         false
Vertical Shift Speed (usecs): 14.51
Pixel Readout Rate (MHz):     3
Baseline Clamp:               ON
Clock Amplitude:              Normal
Output Amplifier:             High Capacity
Serial Number:                23634
Pre-Amplifier Gain:           1.000000
Spurious Noise Filter Mode:   No Filter
Photon counted:               false
Data Averaging Filter Mode:   No Filter
SR500i:
Serial Number:                
Wavelength (nm):              262
Grating Groove Density (l/mm):2400
Grating Blaze:                BH
Output Flipper Port:          Direct
Accessory Output Port 1:      Off
Accessory Output Port 2:      Off
Accessory Output Port 3:      Off
Accessory Input Port:         On



251.94595	2810
251.95586	2669
251.96576	2660
251.97566	2651
251.98557	2680
251.99545	2637
252.00536	2657
252.01526	2654
252.02516	2651
252.03505	2648
252.04495	2653
252.05486	2680
252.06476	2662
252.07465	2680
252.08455	2630
252.09445	2641
252.10434	2673
252.11424	2655
252.12415	2712
252.13403	2644
252.14394	2642
252.15384	2655
252.16373	2686
252.17363	2646
252.18353	2674
252.19342	2669
252.20332	2661
252.21321	2649
252.22311	2617
252.23302	2662
252.2429	2599
252.25281	2626
252.2627	2653
252.2726	2661
252.28249	2659
252.29239	2659
252.30228	2680
252.31218	2663
252.32207	2676
252.33197	2709
252.34186	2643
252.35176	2671
252.36165	2641
252.37155	2653
252.38144	2695
252.39134	2686
252.40123	2674
252.41112	2629
252.42102	2691
252.43091	2658
252.44081	2656
252.4507	2657
252.46059	2653
252.47049	2681
252.48038	2653
252.49028	2693
252.50017	2699
252.51006	2708
252.51996	2686
252.52985	2673
252.53973	2680
252.54962	2657
252.55952	2738
252.56941	2666
252.5793	2693
252.58919	2654
252.59909	2691
252.60898	2684
252.61887	2734
252.62875	2681
252.63866	2696
252.64854	2692
252.65843	2760
252.66832	2681
252.67821	2719
252.68811	2695
252.698	2708
252.70789	2687
252.71777	2713
252.72766	2723
252.73755	2683
252.74744	2727
252.75734	2683
252.76723	2712
252.77711	2680
252.787	2698
252.79689	2677
252.80678	2698
252.81667	2699
252.82655	2708
252.83644	2692
252.84633	2678
252.85622	2690
252.8661	2695
252.87599	2668
252.88588	2672
252.89577	2733
252.90565	2664
252.91554	2686
252.92543	2665
252.93532	2691
252.94521	2670
252.95509	2692
252.96498	2686
252.97487	2674
252.98476	2680
252.99463	2671
253.00452	2700
253.0144	2759
253.02429	3064
253.03418	2706
253.04407	2691
253.05396	2696
253.06383	2676
253.07372	2717
253.0836	2699
253.09349	2710
253.10338	2700
253.11325	2683
253.12314	2729
253.13303	2711
253.14291	2685
253.15279	2709
253.16267	2704
253.17256	2672
253.18245	2725
253.19232	2709
253.20221	2674
253.2121	2681
253.22197	2745
253.23186	2714
253.24174	2702
253.25163	2702
253.26151	2713
253.27139	2698
253.28127	2706
253.29115	2687
253.30104	2695
253.31091	2678
253.3208	2690
253.33067	2706
253.34056	2680
253.35045	2678
253.36032	2733
253.37021	2697
253.38008	2756
253.38997	2705
253.39984	2694
253.40973	2702
253.4196	2741
253.42949	2710
253.43936	2731
253.44925	2698
253.45912	2712
253.46901	2727
253.47888	2699
253.48877	2727
253.49864	2713
253.50853	2708
253.5184	2703
253.52827	2767
253.53816	2714
253.54803	2698
253.55792	2704
253.56779	2720
253.57767	2742
253.58755	2710
253.59743	2718
253.6073	2708
253.61719	2751
253.62706	2743
253.63693	2712
253.64682	2719
253.65669	2726
253.66656	2714
253.67644	2721
253.68633	2701
253.6962	2712
253.70607	2752
253.71594	2794
253.72583	2729
253.7357	2756
253.74557	2767
253.75545	2733
253.76532	2779
253.77521	2756
253.78508	2751
253.79495	2771
253.80482	2756
253.8147	2742
253.82457	2818
253.83446	2750
253.84433	2777
253.8542	2755
253.86407	2759
253.87395	2809
253.88382	2754
253.89369	2722
253.90356	2764
253.91344	2775
253.92331	2780
253.93318	2786
253.94305	2772
253.95293	2789
253.9628	2780
253.97267	2772
253.98254	2800
253.99242	2776
254.00229	2776
254.01216	2797
254.02203	2835
254.03191	2805
254.04178	2808
254.05165	2782
254.06152	2783
254.0714	2811
254.08127	2787
254.09114	2789
254.10101	2755
254.11087	2790
254.12074	2781
254.13062	2829
254.14049	2834
254.15036	2803
254.16023	2807
254.17009	2791
254.17996	2827
254.18983	2792
254.19971	2796
254.20958	2805
254.21944	2839
254.22931	2837
254.23918	2816
254.24905	2927
254.25891	2804
254.26878	2830
254.27866	2833
254.28853	2802
254.29839	2832
254.30826	2821
254.31813	2835
254.32799	2810
254.33786	2900
254.34773	2806
254.35759	2814
254.36746	2841
254.37733	2827
254.38719	2824
254.39706	2829
254.40692	2883
254.41679	2838
254.42667	2864
254.43652	2798
254.4464	2830
254.45625	2859
254.46613	2841
254.47598	2830
254.48586	2829
254.49571	2838
254.50558	2838
254.51544	2843
254.52531	2873
254.53517	2848
254.54504	2850
254.5549	2960
254.56477	2888
254.57463	2827
254.5845	2856
254.59436	2825
254.60423	2861
254.61409	2884
254.62395	2900
254.63382	2871
254.64368	2874
254.65353	2845
254.66341	2861
254.67326	2858
254.68314	2884
254.69299	2898
254.70285	2869
254.71272	2871
254.72258	2844
254.73244	2893
254.74229	2883
254.75217	2892
254.76202	2883
254.77188	2895
254.78174	2888
254.79161	2896
254.80147	2900
254.81133	2905
254.82118	2884
254.83105	2916
254.84091	2887
254.85077	2896
254.86063	2877
254.87048	2872
254.88036	2899
254.89021	2913
254.90007	2918
254.90993	2917
254.91978	2934
254.92964	2906
254.9395	2908
254.94936	2882
254.95921	2896
254.96909	2936
254.97894	2946
254.9888	2903
254.99866	2981
255.00851	2915
255.01837	2918
255.02823	2893
255.03809	2907
255.04794	2899
255.0578	2890
255.06766	2912
255.07751	2879
255.08737	2937
255.09723	2914
255.10709	2898
255.11694	2916
255.1268	2928
255.13664	2896
255.1465	2901
255.15636	2903
255.16621	2907
255.17607	2896
255.18593	2959
255.19579	2887
255.20564	2904
255.21548	2915
255.22534	2989
255.2352	2908
255.24506	2898
255.25491	2932
255.26477	2974
255.27461	2952
255.28447	3016
255.29433	2923
255.30418	2933
255.31403	2906
255.32388	2944
255.33374	3004
255.3436	2973
255.35344	2924
255.3633	2921
255.37315	2917
255.383	2938
255.39285	2946
255.40271	2947
255.41255	2918
255.42241	2929
255.43227	2947
255.44211	2942
255.45197	2977
255.46182	2955
255.47166	2942
255.48152	2960
255.49136	2926
255.50122	2951
255.51108	2949
255.52092	3008
255.53078	2969
255.54062	2912
255.55048	2984
255.56032	2952
255.57018	2927
255.58002	2942
255.58987	2968
255.59972	2963
255.60957	2937
255.61942	2971
255.62927	2945
255.63911	2965
255.64897	2960
255.65881	2941
255.66866	2944
255.67851	2985
255.68835	2965
255.69821	2972
255.70805	3004
255.7179	2934
255.72775	2944
255.73759	2974
255.74744	2942
255.75729	2946
255.76714	2972
255.77698	2962
255.78683	2956
255.79668	3039
255.80652	2978
255.81638	2978
255.82622	3001
255.83606	2981
255.8459	2974
255.85576	2970
255.8656	2968
255.87544	2991
255.88528	2988
255.89514	3005
255.90498	2982
255.91483	2991
255.92467	3229
255.93451	2976
255.94435	2996
255.95421	3022
255.96405	3000
255.97389	2975
255.98373	3012
255.99358	3017
256.00342	3013
256.01328	2998
256.0231	3015
256.03296	3076
256.04279	3017
256.05264	3012
256.06247	3013
256.07233	3033
256.08215	3062
256.09201	3027
256.10184	2997
256.11169	3041
256.12152	3075
256.13138	3051
256.1412	3052
256.15106	3114
256.16089	3030
256.17075	3061
256.18057	3044
256.19043	3029
256.20026	3075
256.21011	3047
256.21994	3073
256.22977	3044
256.23962	3067
256.24945	3068
256.25931	3109
256.26913	3056
256.27899	3080
256.28882	3102
256.29865	3088
256.3085	3056
256.31833	3070
256.32819	3111
256.33801	3072
256.34784	3094
256.3577	3096
256.36752	3084
256.37738	3083
256.38721	3103
256.39703	3116
256.40689	3177
256.41672	3071
256.42654	3104
256.4364	3113
256.44623	3120
256.45605	3096
256.46591	3140
256.47574	3208
256.48557	3173
256.49542	3117
256.50525	3155
256.51508	3129
256.52493	3121
256.53476	3165
256.54459	3112
256.55441	3134
256.56427	3144
256.5741	3139
256.58392	3126
256.59378	3160
256.60361	3118
256.61343	3135
256.62326	3118
256.63312	3126
256.64294	3134
256.65277	3116
256.6626	3153
256.67245	3140
256.68228	3122
256.69211	3196
256.70193	3171
256.71176	3145
256.72162	3233
256.73145	3164
256.74127	3144
256.7511	3762
256.76093	3124
256.77078	3168
256.78061	3165
256.79044	3193
256.80026	3160
256.81009	3158
256.81992	3214
256.82977	3203
256.8396	3182
256.84943	3256
256.85925	3190
256.86908	3255
256.87891	3201
256.88873	3184
256.89859	3190
256.90842	3207
256.91824	3160
256.92807	3169
256.9379	3167
256.94772	3219
256.95755	3193
256.96738	3176
256.9772	3166
256.98703	3184
256.99686	3180
257.00671	3269
257.01654	3346
257.02637	3209
257.03619	3229
257.04602	3192
257.05585	3239
257.06567	3225
257.0755	3206
257.08533	3203
257.09515	3196
257.10498	3208
257.11481	3207
257.12463	3199
257.13446	3210
257.14429	3222
257.15411	3200
257.16394	3225
257.17377	3238
257.18359	3199
257.19342	3229
257.20325	3209
257.21307	3237
257.2229	3229
257.23273	3198
257.24255	3211
257.25238	3341
257.26221	3236
257.27203	3245
257.28186	3246
257.29169	3269
257.30148	3272
257.31131	3282
257.32114	3253
257.33096	3259
257.34079	3249
257.35062	3248
257.36044	3259
257.37027	3242
257.3801	3287
257.38992	3277
257.39972	3248
257.40955	3282
257.41937	3263
257.4292	3277
257.43903	3271
257.44885	3334
257.45868	3283
257.46848	3237
257.4783	3310
257.48813	3296
257.49796	3289
257.50778	3301
257.51761	3366
257.5274	3300
257.53723	3282
257.54706	3304
257.55688	3308
257.56671	3314
257.57651	3306
257.58633	3322
257.59616	3299
257.60599	3330
257.61581	3319
257.62561	3357
257.63544	3317
257.64526	3346
257.65509	3319
257.66489	3343
257.67471	3348
257.68454	3345
257.69437	3342
257.70416	3363
257.71399	3367
257.72382	3346
257.73361	3375
257.74344	3356
257.75327	3361
257.76309	3340
257.77289	3346
257.78271	3377
257.79254	3378
257.80234	3353
257.81216	3362
257.82199	3357
257.83179	3375
257.84161	3416
257.85144	3350
257.86124	3395
257.87106	3369
257.88089	3406
257.89069	3396
257.90051	3395
257.91034	3379
257.92014	3386
257.92996	3399
257.93976	3398
257.94958	3409
257.95941	3403
257.96921	3455
257.97903	3404
257.98883	3413
257.99866	3467
258.00848	3409
258.01828	3426
258.02811	3387
258.0379	3426
258.04773	3448
258.05753	3435
258.06735	3442
258.07718	3432
258.08698	3409
258.0968	3414
258.1066	3450
258.11642	3438
258.12622	3473
258.13605	3417
258.14584	3467
258.15567	3456
258.16547	3459
258.17529	3439
258.18509	3430
258.19492	3421
258.20471	3463
258.21454	3457
258.22433	3473
258.23416	3482
258.24396	3476
258.25378	3491
258.26358	3587
258.27338	3507
258.2832	3539
258.293	3472
258.30283	3460
258.31262	3482
258.32245	3500
258.33224	3484
258.34204	3476
258.35187	3478
258.36166	3471
258.37149	3508
258.38129	3511
258.39108	3476
258.40091	3506
258.41071	3475
258.42053	3489
258.43033	3490
258.44012	3477
258.44995	3515
258.45975	3508
258.46954	3501
258.47937	3532
258.48917	3516
258.49896	3494
258.50879	3522
258.51859	3530
258.52838	3493
258.53821	3557
258.548	3527
258.5578	3564
258.56763	3523
258.57742	3514
258.58722	3544
258.59705	3493
258.60684	3508
258.61664	3544
258.62643	3524
258.63626	3525
258.64606	3531
258.65585	3525
258.66565	3550
258.67548	3551
258.68527	3533
258.69507	3563
258.70486	3560
258.71469	3547
258.72449	3560
258.73428	3562
258.74408	3550
258.75391	3533
258.7637	3504
258.7735	3614
258.78329	3607
258.79309	3553
258.80292	3543
258.81271	3594
258.82251	3580
258.83231	3604
258.8421	3589
258.8519	3546
258.86172	3566
258.87152	3579
258.88132	3572
258.89111	3568
258.90091	3656
258.91071	3620
258.9205	3647
258.93033	3613
258.94012	3603
258.94992	3633
258.95972	3606
258.96951	3623
258.97931	3662
258.98911	3637
258.9989	3632
259.0087	3615
259.01849	3650
259.02832	3622
259.03812	3697
259.04791	3669
259.05771	3649
259.0675	3666
259.0773	3653
259.0871	3657
259.09689	3666
259.10669	3665
259.11649	3681
259.12628	3698
259.13608	3701
259.14587	3673
259.15567	3687
259.16547	3741
259.17526	3689
259.18506	3656
259.19485	3704
259.20465	3712
259.21445	3731
259.22424	3714
259.23404	3699
259.24384	3735
259.25363	3741
259.26343	3725
259.27322	3757
259.28302	3729
259.29282	3788
259.30261	3763
259.31241	3722
259.3222	3732
259.33197	3750
259.34177	3742
259.35156	3734
259.36136	3785
259.37115	3767
259.38095	3778
259.39075	3756
259.40054	3768
259.41034	3822
259.42014	3776
259.4299	3763
259.4397	3780
259.44949	3966
259.45929	3766
259.46909	3857
259.47888	3847
259.48868	3848
259.49844	3890
259.50824	3827
259.51804	3808
259.52783	3839
259.53763	3813
259.54739	3826
259.55719	3839
259.56699	3841
259.57678	3843
259.58658	3941
259.59634	3911
259.60614	3912
259.61594	3857
259.62573	3837
259.63553	3878
259.64529	3922
259.65509	3863
259.66489	3849
259.67468	3896
259.68445	3875
259.69424	3910
259.70404	3856
259.71384	3901
259.7236	3928
259.7334	3879
259.74319	3923
259.75296	3900
259.76276	3875
259.77255	3893
259.78235	3904
259.79211	3921
259.80191	3926
259.81171	3920
259.82147	3929
259.83127	3925
259.84106	3937
259.85083	3933
259.86063	3948
259.87042	3950
259.88019	3958
259.88998	3949
259.89978	3990
259.90955	3977
259.91934	3989
259.92911	3970
259.9389	3972
259.9487	4002
259.95847	3953
259.96826	3977
259.97803	3954
259.98782	3998
259.99762	3982
260.00739	3993
260.01718	3986
260.02695	4015
260.03674	4032
260.04651	3977
260.0563	4012
260.0661	4012
260.07587	4003
260.08566	4102
260.09543	4006
260.10522	4042
260.11499	4028
260.12479	4030
260.13455	4064
260.14435	4099
260.15411	4069
260.16391	4093
260.17368	4068
260.18347	4084
260.19324	4046
260.20303	4073
260.2128	4047
260.2226	4056
260.23236	4062
260.24216	4079
260.25192	4084
260.26172	4084
260.27148	4081
260.28125	4167
260.29105	4099
260.30081	4128
260.31061	4083
260.32037	4095
260.33017	4121
260.33994	4090
260.3497	4120
260.3595	4153
260.36926	4155
260.37906	4159
260.38882	4145
260.39859	4137
260.40839	4157
260.41815	4146
260.42792	4118
260.43771	4175
260.44748	4130
260.45728	4163
260.46704	4155
260.47681	4211
260.4866	4175
260.49637	4185
260.50613	4159
260.51593	4203
260.5257	4231
260.53546	4184
260.54523	4180
260.55502	4186
260.56479	4167
260.57455	4181
260.58435	4194
260.59412	4207
260.60388	4206
260.61368	4220
260.62344	4237
260.63321	4197
260.64297	4225
260.65277	4212
260.66254	4216
260.6723	4248
260.68207	4213
260.69186	4281
260.70163	4292
260.7114	4264
260.72116	4279
260.73093	4268
260.74072	4257
260.75049	4247
260.76025	4298
260.77002	4280
260.77979	4332
260.78958	4266
260.79935	4273
260.80911	4353
260.81888	4331
260.82864	4315
260.83841	4301
260.84821	4302
260.85797	4317
260.86774	4345
260.8775	4353
260.88727	4363
260.89703	4333
260.9068	4398
260.91656	4357
260.92636	4414
260.93613	4368
260.94589	4382
260.95566	4373
260.96542	4381
260.97519	4389
260.98495	4402
260.99472	4360
261.00449	4340
261.01425	4379
261.02402	4407
261.03378	4437
261.04355	4388
261.05334	4416
261.06311	4386
261.07288	4512
261.08264	4374
261.09241	4409
261.10217	4392
261.11194	4439
261.1217	4454
261.13147	4439
261.14124	4462
261.151	4499
261.16077	4437
261.17053	4452
261.1803	4452
261.19006	4445
261.19983	4467
261.20959	4421
261.21936	4466
261.22913	4441
261.23886	4459
261.24863	4490
261.25839	4480
261.26816	4486
261.27792	4487
261.28769	4481
261.29745	4485
261.30722	4491
261.31699	4536
261.32675	4506
261.33652	4524
261.34628	4509
261.35602	4580
261.36578	4541
261.37555	4580
261.38531	4578
261.39508	4554
261.40485	4543
261.41461	4554
261.42438	4569
261.43411	4585
261.44388	4573
261.45364	4575
261.46341	4584
261.47318	4629
261.48294	4615
261.49268	4625
261.50244	4636
261.51221	4616
261.52197	4595
261.53174	4635
261.54147	4634
261.55124	4669
261.561	4707
261.57077	4629
261.58051	4668
261.59027	4690
261.60004	4676
261.6098	4695
261.61957	4682
261.6293	4706
261.63907	4702
261.64883	4699
261.65857	4694
261.66833	4722
261.6781	4717
261.68787	4742
261.6976	4735
261.70737	4738
261.71713	4790
261.72687	4760
261.73663	4748
261.7464	4782
261.75616	4784
261.7659	4803
261.77567	4798
261.78543	4779
261.79517	4794
261.80493	4789
261.81467	4822
261.82443	4805
261.8342	4821
261.84393	4832
261.8537	4825
261.86346	4881
261.8732	4886
261.88297	4860
261.89273	4876
261.90247	4896
261.91223	4898
261.92197	4873
261.93173	4897
261.94147	4994
261.95123	4975
261.961	4890
261.97073	4906
261.9805	4951
261.99023	4899
262	4960
262.00974	4957
262.0195	4953
262.02924	4986
262.039	4991
262.04877	5004
262.0585	4981
262.06827	4997
262.078	5022
262.08777	5048
262.0975	5009
262.10727	5022
262.117	5085
262.12677	5060
262.13651	5087
262.14627	5043
262.15601	5075
262.16574	5064
262.17551	5063
262.18524	5061
262.19501	5045
262.20474	5084
262.21451	5106
262.22424	5132
262.23401	5083
262.24374	5118
262.25348	5138
262.26324	5116
262.27298	5130
262.28275	5147
262.29248	5197
262.30222	5156
262.31198	5170
262.32172	5173
262.33148	5168
262.34122	5233
262.35095	5175
262.36072	5192
262.37045	5224
262.38019	5190
262.38995	5264
262.39969	5183
262.40942	5218
262.41919	5227
262.42892	5251
262.43866	5199
262.44843	5306
262.45816	5302
262.4679	5247
262.47766	5275
262.4874	5277
262.49713	5269
262.5069	5290
262.51663	5290
262.52637	5318
262.5361	5282
262.54587	5304
262.5556	5317
262.56534	5339
262.57507	5364
262.58484	5353
262.59457	5390
262.60431	5349
262.61404	5376
262.62381	5403
262.63354	5358
262.64328	5396
262.65302	5421
262.66275	5401
262.67252	5432
262.68225	5440
262.69199	5476
262.70172	5471
262.71146	5458
262.72122	5476
262.73096	5520
262.74069	5491
262.75043	5490
262.76016	5494
262.7699	5472
262.77963	5481
262.7894	5528
262.79913	5523
262.80887	5545
262.8186	5592
262.82834	5546
262.83807	5609
262.84781	5591
262.85754	5565
262.86728	5533
262.87704	5567
262.88678	5627
262.89651	5560
262.90625	5583
262.91599	5621
262.92572	5602
262.93546	5619
262.94519	5668
262.95493	5580
262.96466	5670
262.9744	5576
262.98413	5663
262.99387	5660
263.0036	5660
263.01334	5680
263.02307	5738
263.03281	5693
263.04254	5762
263.05228	5724
263.06201	5698
263.07175	5698
263.08148	5730
263.09122	5730
263.10095	5784
263.11069	5749
263.12042	5793
263.13016	5766
263.13989	5795
263.14963	5781
263.15936	5786
263.1691	5823
263.17883	5823
263.18857	5834
263.1983	5809
263.20804	5847
263.21774	5856
263.22748	5866
263.23721	5852
263.24695	5908
263.25668	5903
263.26642	5868
263.27615	5879
263.28589	5880
263.29562	5878
263.30533	5928
263.31506	5900
263.3248	5937
263.33453	5929
263.34427	5938
263.354	5975
263.36371	5973
263.37344	5978
263.38318	5959
263.39291	5986
263.40265	6016
263.41235	5988
263.42209	6003
263.43182	6053
263.44156	6039
263.45129	6024
263.461	6073
263.47073	6078
263.48047	6063
263.4902	6106
263.49991	6069
263.50964	6063
263.51938	6112
263.52911	6123
263.53882	6125
263.54855	6151
263.55829	6188
263.56802	6175
263.57773	6260
263.58746	6170
263.5972	6203
263.6069	6194
263.61664	6246
263.62637	6217
263.63611	6217
263.64581	6265
263.65555	6254
263.66528	6273
263.67499	6298
263.68472	6259
263.69446	6317
263.70416	6283
263.7139	6321
263.7236	6313
263.73334	6313
263.74307	6294
263.75278	6343
263.76251	6364
263.77225	6376
263.78195	6366
263.79169	6506
263.80139	6398
263.81113	6446
263.82086	6444
263.83057	6447
263.8403	6452
263.85001	6467
263.85974	6479
263.86945	6486
263.87918	6522
263.88889	6525
263.89862	6507
263.90836	6555
263.91806	6514
263.9278	6578
263.9375	6538
263.94724	6550
263.95694	6573
263.96667	6574
263.97638	6602
263.98611	6607
263.99582	6611
264.00555	6629
264.01526	6626
264.02499	6625
264.0347	6697
264.0444	6688
264.05414	6622
264.06384	6698
264.07358	6689
264.08328	6701
264.09302	6733
264.10272	6740
264.11246	6762
264.12216	6791
264.13187	6788
264.1416	6800
264.15131	6813
264.16104	6872
264.17075	6822
264.18045	6828
264.19019	6844
264.19989	6937
264.20963	6889
264.21933	6918
264.22903	6962
264.23877	6958
264.24847	6949
264.25818	6930
264.26791	6969
264.27762	6993
264.28732	6933
264.29706	7013
264.30676	7023
264.31647	7051
264.3262	7034
264.33591	7049
264.34561	7058
264.35535	7074
264.36505	7160
264.37476	7124
264.38446	7136
264.3942	7098
264.4039	7159
264.4136	7162
264.42331	7151
264.43304	7201
264.44275	7177
264.45245	7191
264.46216	7248
264.47189	7266
264.4816	7270
264.4913	7317
264.50101	7255
264.51071	7383
264.52045	7332
264.53015	7327
264.53986	7367
264.54956	7360
264.55927	7353
264.569	7368
264.5787	7392
264.58841	7372
264.59811	7398
264.60782	7389
264.61752	7439
264.62726	7437
264.63696	7435
264.64667	7448
264.65637	7485
264.66608	7483
264.67578	7503
264.68549	7525
264.69519	7618
264.70493	7573
264.71463	7575
264.72433	7584
264.73404	7629
264.74374	7610
264.75345	7627
264.76315	7652
264.77286	7698
264.78256	7685
264.79227	7697
264.80197	7706
264.81168	7727
264.82138	7750
264.83109	7775
264.84079	7740
264.85049	7769
264.8602	7767
264.8699	7804
264.87964	7823
264.88934	7820
264.89905	7859
264.90872	7836
264.91843	7877
264.92813	7939
264.93784	7921
264.94754	7865
264.95724	7961
264.96695	7961
264.97665	7982
264.98636	7986
264.99606	8026
265.00577	8098
265.01547	8028
265.02518	8025
265.03488	8080
265.04459	8092
265.05429	8098
265.064	8148
265.0737	8152
265.08337	8156
265.09308	8171
265.10278	8213
265.11249	8247
265.12219	8327
265.1319	8255
265.1416	8250
265.15131	8291
265.16098	8281
265.17068	8331
265.18039	8313
265.19009	8366
265.1998	8364
265.2095	8430
265.21918	8559
265.22888	8462
265.23859	8451
265.24829	8497
265.258	8458
265.26767	8516
265.27737	8582
265.28708	8561
265.29678	8588
265.30649	8592
265.31616	8666
265.32587	8647
265.33557	8636
265.34528	8680
265.35495	8745
265.36465	8737
265.37436	8774
265.38406	8719
265.39374	8837
265.40344	8808
265.41315	8798
265.42282	8887
265.43253	8932
265.44223	8932
265.4519	8935
265.46161	8948
265.47131	9000
265.48102	9013
265.49069	9007
265.5004	9070
265.5101	9039
265.51978	9085
265.52948	9059
265.53915	9089
265.54886	9111
265.55856	9153
265.56824	9155
265.57794	9198
265.58765	9181
265.59732	9262
265.60703	9232
265.6167	9251
265.6264	9282
265.63611	9351
265.64578	9320
265.65549	9349
265.66516	9430
265.67487	9420
265.68454	9636
265.69424	9413
265.70395	9425
265.71362	9446
265.72333	9534
265.733	9542
265.74271	9544
265.75238	9545
265.76208	9576
265.77176	9585
265.78146	9678
265.79114	9737
265.80084	9680
265.81052	9707
265.82022	9732
265.8299	9728
265.8396	9793
265.84927	9818
265.85898	9875
265.86865	9900
265.87836	9954
265.88803	9989
265.89774	10021
265.90741	10017
265.91708	10039
265.92679	10050
265.93646	10090
265.94617	10092
265.95584	10147
265.96552	10149
265.97522	10215
265.98489	10232
265.9946	10289
266.00427	10231
266.01395	10258
266.02365	10269
266.03333	10354
266.04303	10371
266.0527	10359
266.06238	10463
266.07208	10487
266.08176	10454
266.09143	10471
266.10114	10574
266.11081	10594
266.12048	10633
266.13019	10616
266.13986	10634
266.14954	10656
266.15921	10679
266.16891	10739
266.17859	10757
266.18826	10806
266.19797	10827
266.20764	10935
266.21732	10908
266.22699	10931
266.23669	10962
266.24637	10982
266.25604	10973
266.26572	11022
266.27542	11028
266.2851	11117
266.29477	11228
266.30444	11242
266.31412	11195
266.32382	11449
266.3335	11370
266.34317	11282
266.35284	11421
266.36252	11383
266.37222	11407
266.3819	11396
266.39157	11449
266.40125	11526
266.41092	11569
266.42059	11611
266.4303	11660
266.43997	11651
266.44965	11727
266.45932	11741
266.46899	11741
266.47867	11804
266.48834	11795
266.49802	11803
266.50772	11882
266.5174	11898
266.52707	11965
266.53674	11971
266.54642	12021
266.55609	12081
266.56577	12135
266.57544	12161
266.58511	12159
266.59479	12230
266.60446	12253
266.61414	12339
266.62381	12380
266.63348	12460
266.64316	12546
266.65283	12542
266.66251	12587
266.67218	12612
266.68185	12586
266.69153	12586
266.7012	12649
266.71088	12680
266.72055	12796
266.73022	12822
266.7399	12847
266.74957	12824
266.75925	13012
266.76892	12963
266.77859	13046
266.78827	13127
266.79794	13120
266.80762	13153
266.81729	13145
266.82697	13235
266.83664	13328
266.84631	13327
266.85599	13385
266.86566	13488
266.87531	13501
266.88498	13550
266.89465	13555
266.90433	13601
266.914	13684
266.92368	13685
266.93335	13818
266.94302	13878
266.95267	13876
266.96234	13997
266.97202	14034
266.98169	14040
266.99136	14226
267.00104	14108
267.01068	14160
267.02036	14251
267.03003	14269
267.0397	14289
267.04938	14403
267.05902	14465
267.0687	14593
267.07837	14589
267.08804	14687
267.09772	14754
267.10736	14910
267.11703	14987
267.12671	14893
267.13638	14976
267.14603	15042
267.1557	15107
267.16537	15223
267.17502	15267
267.18469	15348
267.19437	15347
267.20404	15408
267.21368	15502
267.22336	15527
267.23303	15643
267.24268	15748
267.25235	15721
267.26202	15779
267.27167	15793
267.28134	15914
267.29102	16016
267.30066	16027
267.31033	16120
267.32001	16214
267.32965	16294
267.33932	16407
267.349	16483
267.35864	16418
267.36832	16593
267.37796	16636
267.38763	16704
267.39731	16795
267.40695	16868
267.41663	16949
267.42627	17022
267.43594	17019
267.44562	17179
267.45526	17162
267.46494	17198
267.47458	17274
267.48425	17391
267.4939	17484
267.50357	17521
267.51321	17635
267.52289	17767
267.53253	17849
267.54221	17926
267.55185	17908
267.56152	18066
267.57117	18112
267.58084	18257
267.59048	18348
267.60016	18508
267.6098	18596
267.61948	18615
267.62912	18780
267.63879	18801
267.64844	18939
267.65811	19050
267.66776	19120
267.67743	19289
267.68707	19332
267.69672	19428
267.70639	19463
267.71603	19628
267.72571	19758
267.73535	19852
267.74503	19867
267.75467	20013
267.76431	20171
267.77399	20283
267.78363	20344
267.79327	20422
267.80295	20603
267.81259	20678
267.82227	20829
267.83191	21048
267.84155	21114
267.85123	21194
267.86087	21338
267.87051	21408
267.88019	21503
267.88983	21631
267.89948	21674
267.90912	21785
267.91879	21879
267.92844	21922
267.93808	22084
267.94775	22247
267.9574	22338
267.96704	22467
267.97668	22568
267.98636	22698
267.996	22852
268.00565	22828
268.01529	23005
268.02496	23155
268.03461	23278
268.04425	23359
268.05389	23582
268.06357	23831
268.07321	23960
268.08286	24012
268.0925	24044
268.10214	24155
268.11182	24260
268.12146	24349
268.1311	24427
268.14075	24655
268.15039	24721
268.16003	24729
268.16971	25026
268.17935	25148
268.189	25338
268.19864	25338
268.20828	25500
268.21793	25624
268.22757	25819
268.23724	25933
268.24689	26145
268.25653	26359
268.26617	26621
268.27582	26672
268.28546	26813
268.2951	27075
268.30475	27296
268.31439	27323
268.32404	27520
268.33368	27707
268.34332	27823
268.353	27833
268.36264	27981
268.37228	28141
268.38193	28234
268.39157	28403
268.40121	28812
268.41086	29102
268.4205	29287
268.43015	29419
268.43979	29445
268.44943	29696
268.45908	29935
268.46872	30142
268.47836	30486
268.48801	30700
268.49765	31027
268.50729	31094
268.51694	31357
268.52655	31523
268.53619	31676
268.54584	31828
268.55548	32107
268.56512	32324
268.57477	32478
268.58441	32625
268.59406	32940
268.6037	33328
268.61334	33572
268.62299	33610
268.63263	33863
268.64224	34149
268.65189	34228
268.66153	34530
268.67117	34761
268.68082	35012
268.69046	35395
268.7001	35682
268.70972	36179
268.71936	36374
268.729	36818
268.73865	36919
268.74829	37330
268.75793	37641
268.76755	37897
268.77719	38049
268.78683	38492
268.79648	38851
268.80612	39054
268.81573	39725
268.82538	39869
268.83502	40122
268.84467	40589
268.85428	40958
268.86392	41105
268.87357	41544
268.88321	41961
268.89282	42170
268.90247	42545
268.91211	42629
268.92175	43461
268.93137	43728
268.94101	44140
268.95065	44629
268.96027	45153
268.96991	45585
268.97955	45955
268.98917	46403
268.99881	46652
269.00845	47333
269.01807	47874
269.02771	48374
269.03735	48840
269.04697	49208
269.05661	49552
269.06625	49803
269.07587	50064
269.08551	50313
269.09515	50485
269.10477	50671
269.11441	50840
269.12402	50989
269.13367	51127
269.14331	51260
269.15292	51367
269.16257	51463
269.17218	51562
269.18182	51664
269.19144	51750
269.20108	51830
269.21072	51878
269.22034	51953
269.22998	52028
269.23959	52090
269.24924	52135
269.25885	52191
269.26849	52225
269.27811	52276
269.28775	52307
269.29736	52357
269.30701	52407
269.31662	52424
269.32626	52456
269.33588	52505
269.34552	52514
269.35513	52550
269.36478	52580
269.37439	52613
269.384	52643
269.39365	52669
269.40326	52694
269.4129	52704
269.42252	52728
269.43216	52753
269.44177	52774
269.45139	52794
269.46103	52816
269.47064	52810
269.48029	52840
269.4899	52863
269.49951	52883
269.50916	52897
269.51877	52909
269.52841	52928
269.53802	52936
269.54764	52952
269.55728	52963
269.56689	52966
269.57651	52984
269.58615	52998
269.59576	53007
269.60538	53011
269.61502	53030
269.62463	53048
269.63425	53043
269.64386	53067
269.6535	53079
269.66312	53080
269.67273	53094
269.68237	53098
269.69199	53110
269.7016	53119
269.71121	53117
269.72086	53128
269.73047	53144
269.74008	53149
269.74969	53145
269.75934	53159
269.76895	53162
269.77856	53181
269.78818	53176
269.79779	53184
269.80743	53175
269.81705	53201
269.82666	53207
269.83627	53215
269.84589	53217
269.85553	53212
269.86514	53225
269.87476	53235
269.88437	53232
269.89398	53248
269.90359	53248
269.91321	53275
269.92285	53256
269.93246	53248
269.94208	53284
269.95169	53264
269.9613	53256
269.97092	53277
269.98053	53278
269.99014	53285
269.99976	53275
270.00937	53299
270.01901	53296
270.02863	53297
270.03824	53306
270.04785	53305
270.05746	53307
270.06708	53312
270.07669	53308
270.0863	53309
270.09592	53325
270.10553	53336
270.11514	53322
270.12476	53320
270.13437	53319
270.14398	53319
270.15359	53328
270.16321	53338
270.17282	53330
270.18243	53336
270.19205	53340
270.20166	53317
270.21127	53343
270.22089	53347
270.2305	53360
270.24011	53344
270.24973	53367
270.25934	53349
270.26892	53358
270.27853	53367
270.28815	53363
270.29776	53369
270.30737	53356
270.31699	53367
270.3266	53365
270.33621	53365
270.34583	53370
270.35544	53372
270.36502	53386
270.37463	53373
270.38425	53368
270.39386	53361
270.40347	53385
270.41309	53377
270.4227	53376
270.43228	53383
270.44189	53393
270.45151	53382
270.46112	53390
270.47073	53383
270.48032	53390
270.48993	53396
270.49954	53398
270.50916	53399
270.51877	53382
270.52835	53397
270.53796	53401
270.54758	53390
270.55719	53408
270.56677	53399
270.57639	53389
270.586	53406
270.59561	53404
270.60519	53405
270.61481	53394
270.62442	53402
270.634	53413
270.64362	53396
270.65323	53398
270.66281	53414
270.67242	53395
270.68204	53407
270.69165	53400
270.70123	53411
270.71085	53410
270.72046	53413
270.73004	53405
270.73965	53400
270.74924	53406
270.75885	53418
270.76846	53414
270.77805	53428
270.78766	53402
270.79727	53425
270.80685	53418
270.81647	53410
270.82605	53419
270.83566	53421
270.84528	53426
270.85486	53421
270.86447	53423
270.87405	53427
270.88367	53424
270.89325	53421
270.90286	53431
270.91245	53419
270.92206	53425
270.93164	53432
270.94125	53423
270.95087	53424
270.96045	53435
270.97006	53423
270.97964	53432
270.98926	53421
270.99884	53431
271.00845	53424
271.01804	53431
271.02762	53427
271.03723	53424
271.04681	53420
271.05643	53431
271.06601	53436
271.07562	53445
271.08521	53423
271.09482	53424
271.1044	53419
271.11398	53435
271.1236	53427
271.13318	53437
271.14279	53430
271.15237	53440
271.16196	53430
271.17157	53433
271.18115	53432
271.19077	53440
271.20035	53434
271.20993	53435
271.21954	53441
271.22913	53439
271.23871	53441
271.24832	53426
271.2579	53446
271.26749	53438
271.2771	53454
271.28668	53435
271.29626	53442
271.30588	53460
271.31546	53425
271.32504	53449
271.33463	53441
271.34424	53440
271.35382	53436
271.3634	53447
271.37302	53441
271.3826	53443
271.39218	53442
271.40176	53428
271.41138	53440
271.42096	53445
271.43054	53429
271.44012	53431
271.44971	53446
271.45932	53433
271.4689	53443
271.47849	53447
271.48807	53451
271.49765	53449
271.50726	53455
271.51685	53444
271.52643	53443
271.53601	53429
271.54559	53449
271.55518	53435
271.56479	53448
271.57437	53435
271.58395	53431
271.59354	53447
271.60312	53443
271.6127	53448
271.62228	53438
271.63187	53444
271.64148	53446
271.65106	53439
271.66064	53441
271.67023	53436
271.67981	53442
271.68939	53439
271.69897	53433
271.70856	53447
271.71814	53423
271.72772	53433
271.7373	53443
271.74689	53428
271.75647	53426
271.76605	53424
271.77563	53408
271.78522	53410
271.7948	53401
271.80438	53404
271.81396	53383
271.82355	53369
271.83313	53362
271.84271	53333
271.85229	53304
271.86188	53288
271.87146	53240
271.88104	53213
271.89063	53145
271.90021	53084
