Date and Time:                Sat Jan 28 15:59:59.000 2023
Software Version:             4.31.30023.0
Temperature (C):              -40
Model:                        DU940P_BU2
Data Type:                    Counts
Acquisition Mode:             Single Scan
Trigger Mode:                 Internal
Exposure Time (secs):         2.5
Readout Mode:                 Full Vertical Binning
Horizontal binning:           1
Extended Dynamic Range:       off
Horizontally flipped:         false
Vertical Shift Speed (usecs): 14.51
Pixel Readout Rate (MHz):     3
Baseline Clamp:               ON
Clock Amplitude:              Normal
Output Amplifier:             High Capacity
Serial Number:                23634
Pre-Amplifier Gain:           1.000000
Spurious Noise Filter Mode:   No Filter
Photon counted:               false
Data Averaging Filter Mode:   No Filter
SR500i:
Serial Number:                
Wavelength (nm):              255
Grating Groove Density (l/mm):1199.47
Grating Blaze:                500
Output Flipper Port:          Direct
Accessory Output Port 1:      Off
Accessory Output Port 2:      Off
Accessory Output Port 3:      Off
Accessory Input Port:         On



233.22879	351
233.25017	353
233.27155	355
233.29292	351
233.3143	347
233.33568	345
233.35706	347
233.37842	345
233.3998	345
233.42117	349
233.44255	353
233.46393	344
233.48531	349
233.50668	348
233.52805	353
233.54942	346
233.5708	341
233.59218	347
233.61356	342
233.63492	337
233.6563	344
233.67767	350
233.69904	351
233.72041	345
233.74179	343
233.76317	348
233.78453	346
233.80591	343
233.82729	347
233.84865	348
233.87003	347
233.89139	342
233.91277	351
233.93414	343
233.95551	343
233.97688	344
233.99825	343
234.01962	347
234.04099	342
234.06236	346
234.08374	346
234.1051	350
234.12648	339
234.14784	349
234.16922	346
234.19058	347
234.21194	336
234.23332	344
234.25468	350
234.27606	346
234.29742	350
234.31879	345
234.34016	347
234.36153	338
234.3829	343
234.40427	342
234.42563	343
234.44701	348
234.46837	339
234.48973	343
234.51111	352
234.53247	345
234.55383	354
234.5752	348
234.59657	347
234.61794	344
234.6393	343
234.66066	347
234.68202	343
234.7034	344
234.72476	350
234.74612	343
234.76749	344
234.78885	352
234.81021	345
234.83159	345
234.85295	347
234.87431	348
234.89568	346
234.91704	347
234.9384	348
234.95976	346
234.98112	342
235.00249	350
235.02385	352
235.04521	351
235.06657	349
235.08794	348
235.1093	348
235.13066	354
235.15202	347
235.17339	342
235.19475	349
235.21611	342
235.23747	355
235.25883	351
235.28018	345
235.30154	354
235.32291	344
235.34427	352
235.36563	342
235.38699	340
235.40836	348
235.4297	347
235.45107	343
235.47243	350
235.49379	348
235.51514	345
235.5365	341
235.55786	345
235.57922	344
235.60057	351
235.62193	349
235.6433	349
235.66464	352
235.686	347
235.70737	345
235.72871	354
235.75008	347
235.77144	350
235.79279	351
235.81415	352
235.83549	350
235.85686	341
235.87822	350
235.89957	348
235.92093	351
235.94228	343
235.96364	347
235.98499	343
236.00635	348
236.02769	350
236.04906	349
236.0704	354
236.09177	351
236.11311	351
236.13446	349
236.15582	345
236.17717	348
236.19853	350
236.21988	348
236.24123	342
236.26259	343
236.28394	348
236.30528	351
236.32664	349
236.34799	351
236.36934	339
236.3907	349
236.41205	356
236.4334	352
236.45474	340
236.4761	349
236.49745	348
236.5188	351
236.54015	345
236.56149	349
236.58286	355
236.6042	351
236.62555	351
236.6469	348
236.66824	346
236.68959	351
236.71094	343
236.73228	349
236.75365	349
236.77499	346
236.79634	348
236.81769	350
236.83904	358
236.86038	349
236.88173	348
236.90308	348
236.92442	344
236.94577	356
236.96712	346
236.98846	343
237.00981	346
237.03116	346
237.05251	346
237.07384	347
237.09518	337
237.11653	352
237.13788	349
237.15923	347
237.18057	346
237.20192	348
237.22325	348
237.2446	345
237.26595	348
237.28729	349
237.30864	350
237.32997	352
237.35132	347
237.37267	353
237.39401	353
237.41534	357
237.43669	345
237.45804	347
237.47937	348
237.50072	348
237.52206	353
237.5434	347
237.56474	347
237.58609	345
237.60742	351
237.62877	350
237.65012	352
237.67145	345
237.69279	351
237.71413	347
237.73547	349
237.75681	350
237.77815	353
237.79948	348
237.82083	351
237.84216	352
237.86351	347
237.88484	351
237.90619	348
237.92752	345
237.94887	347
237.9702	351
237.99153	352
238.01288	346
238.03421	349
238.05556	357
238.07689	346
238.09822	355
238.11957	350
238.1409	354
238.16223	345
238.18358	348
238.20491	345
238.22624	352
238.24757	350
238.26892	352
238.29025	351
238.31158	347
238.33292	358
238.35425	354
238.3756	349
238.39693	352
238.41826	352
238.43959	351
238.46092	352
238.48225	357
238.5036	351
238.52493	350
238.54626	351
238.5676	352
238.58893	353
238.61026	356
238.63159	350
238.65292	349
238.67426	343
238.69559	349
238.71692	350
238.73825	349
238.75958	353
238.78091	349
238.80225	351
238.82358	352
238.84491	348
238.86624	347
238.88757	346
238.90891	353
238.93022	342
238.95155	356
238.97289	349
238.99422	352
239.01555	348
239.03688	345
239.0582	350
239.07953	352
239.10086	352
239.12219	352
239.14352	353
239.16484	356
239.18617	358
239.2075	348
239.22882	355
239.25015	355
239.27148	346
239.2928	354
239.31413	347
239.33546	357
239.35678	352
239.37811	355
239.39944	355
239.42076	352
239.44209	351
239.46341	353
239.48474	355
239.50607	346
239.52739	345
239.54872	352
239.57004	351
239.59137	345
239.61269	355
239.63402	353
239.65533	350
239.67667	351
239.69798	351
239.7193	357
239.74063	354
239.76195	357
239.78328	356
239.8046	351
239.82591	360
239.84724	351
239.86856	356
239.88989	351
239.91121	355
239.93253	360
239.95384	349
239.97517	348
239.99649	356
240.01781	351
240.03914	349
240.06046	353
240.08177	349
240.10309	354
240.1244	353
240.14574	356
240.16705	348
240.18837	353
240.20969	356
240.231	353
240.25232	356
240.27365	348
240.29497	356
240.31628	354
240.3376	342
240.35892	347
240.38023	350
240.40155	353
240.42287	353
240.44418	350
240.4655	355
240.48682	352
240.50813	360
240.52945	358
240.55077	352
240.57208	360
240.5934	343
240.61472	355
240.63603	354
240.65735	352
240.67865	354
240.69997	350
240.72128	362
240.7426	354
240.76392	353
240.78523	357
240.80655	354
240.82785	359
240.84917	350
240.87048	356
240.8918	351
240.9131	351
240.93442	359
240.95573	354
240.97705	355
240.99835	351
241.01967	358
241.04099	357
241.06229	359
241.0836	356
241.10492	358
241.12622	358
241.14754	354
241.16884	358
241.19016	348
241.21147	341
241.23277	355
241.25409	352
241.27539	349
241.29671	349
241.31801	347
241.33932	356
241.36063	360
241.38194	356
241.40324	348
241.42456	354
241.44586	355
241.46718	352
241.48848	353
241.50978	358
241.5311	357
241.5524	353
241.57372	355
241.59502	361
241.61632	353
241.63763	359
241.65894	357
241.68024	352
241.70155	351
241.72285	357
241.74416	353
241.76546	357
241.78677	357
241.80807	357
241.82938	355
241.85068	349
241.87199	356
241.8933	355
241.9146	358
241.9359	360
241.9572	356
241.9785	353
241.9998	355
242.02112	358
242.04242	357
242.06372	354
242.08502	352
242.10632	353
242.12762	357
242.14893	354
242.17023	366
242.19153	357
242.21283	361
242.23413	352
242.25543	357
242.27673	360
242.29803	357
242.31934	354
242.34064	358
242.36194	359
242.38324	363
242.40453	362
242.42583	360
242.44713	359
242.46843	346
242.48973	355
242.51103	363
242.53232	363
242.55362	358
242.57492	362
242.59622	362
242.61752	355
242.63881	360
242.66011	356
242.68141	354
242.70271	364
242.724	359
242.7453	353
242.7666	359
242.78789	362
242.80919	362
242.83049	358
242.85178	364
242.87308	365
242.89436	356
242.91566	364
242.93697	358
242.95825	363
242.97955	366
243.00084	366
243.02214	361
243.04343	360
243.06473	368
243.08601	360
243.10732	358
243.1286	362
243.1499	372
243.17119	364
243.19247	362
243.21378	359
243.23506	362
243.25636	366
243.27765	369
243.29893	363
243.32024	367
243.34152	367
243.36281	366
243.38411	361
243.4054	368
243.42668	360
243.44798	371
243.46927	368
243.49055	366
243.51184	369
243.53313	371
243.55443	364
243.57571	364
243.597	367
243.61829	369
243.63957	364
243.66087	369
243.68216	372
243.70345	367
243.72473	368
243.74602	370
243.7673	366
243.78859	370
243.80988	374
243.83116	371
243.85245	371
243.87373	367
243.89502	371
243.91631	367
243.93759	380
243.95888	371
243.98016	374
244.00145	371
244.02274	370
244.04402	376
244.06531	364
244.08659	372
244.10788	373
244.12917	370
244.15044	366
244.17172	374
244.19301	373
244.21429	360
244.23558	375
244.25685	370
244.27814	373
244.29942	377
244.32071	363
244.34198	379
244.36327	377
244.38455	373
244.40584	370
244.42711	375
244.44839	376
244.46968	373
244.49095	374
244.51224	375
244.53352	382
244.55479	374
244.57608	369
244.59735	372
244.61864	383
244.63991	381
244.66119	377
244.68248	376
244.70375	377
244.72504	376
244.74631	375
244.76759	374
244.78886	380
244.81013	371
244.83142	376
244.85269	380
244.87398	377
244.89525	377
244.91653	376
244.93781	376
244.95908	383
244.98036	384
245.00163	376
245.0229	383
245.04419	384
245.06546	373
245.08673	375
245.10802	385
245.12929	386
245.15056	381
245.17183	386
245.19312	385
245.21439	383
245.23566	387
245.25693	387
245.2782	396
245.29947	385
245.32076	389
245.34203	385
245.3633	383
245.38457	396
245.40584	392
245.42711	387
245.44838	397
245.46965	394
245.49092	393
245.51219	399
245.53346	400
245.55473	397
245.576	395
245.59727	399
245.61855	400
245.63982	392
245.66109	406
245.68236	401
245.70363	404
245.7249	396
245.74617	399
245.76744	406
245.78871	404
245.80997	403
245.83124	404
245.85251	407
245.87378	403
245.89505	410
245.91631	408
245.93758	402
245.95885	407
245.98012	413
246.00139	407
246.02264	414
246.04391	413
246.06519	407
246.08644	410
246.10771	416
246.12898	414
246.15024	420
246.17151	416
246.19278	415
246.21404	419
246.23531	419
246.25656	419
246.27783	414
246.29909	422
246.32036	423
246.34161	417
246.36288	428
246.38414	431
246.40541	423
246.42667	428
246.44794	429
246.46919	428
246.49046	425
246.51172	427
246.53299	428
246.55424	431
246.5755	433
246.59677	432
246.61803	435
246.63928	437
246.66055	447
246.68181	436
246.70306	436
246.72433	442
246.74559	440
246.76685	438
246.78812	448
246.80937	447
246.83063	444
246.85188	441
246.87314	449
246.89441	454
246.91566	453
246.93692	463
246.95818	457
246.97943	450
247.00069	451
247.02194	463
247.0432	467
247.06447	463
247.08572	464
247.10698	471
247.12823	468
247.14949	471
247.17075	473
247.192	481
247.21326	470
247.23451	488
247.25577	488
247.27702	489
247.29828	486
247.31953	482
247.34077	504
247.36203	497
247.38329	499
247.40454	492
247.4258	503
247.44705	496
247.46831	505
247.48955	509
247.5108	517
247.53206	521
247.55331	523
247.57457	517
247.59581	536
247.61707	540
247.63832	535
247.65956	540
247.68082	547
247.70207	552
247.72333	553
247.74457	547
247.76582	555
247.78706	555
247.80832	558
247.82957	579
247.85081	578
247.87207	574
247.89331	584
247.91457	583
247.93582	585
247.95706	588
247.97832	586
247.99956	592
248.02081	605
248.04205	610
248.06329	631
248.08455	635
248.10579	630
248.12704	637
248.14828	655
248.16954	652
248.19078	654
248.21202	665
248.23328	664
248.25452	672
248.27576	671
248.29701	678
248.31825	673
248.33949	693
248.36073	703
248.38199	705
248.40323	712
248.42447	716
248.44571	723
248.46696	725
248.4882	727
248.50945	746
248.53069	759
248.55193	762
248.57317	765
248.59442	776
248.61566	767
248.6369	784
248.65814	794
248.67938	789
248.70062	798
248.72186	794
248.7431	816
248.76434	809
248.78558	819
248.80682	836
248.82806	836
248.8493	845
248.87054	843
248.89178	852
248.91302	862
248.93427	857
248.95551	862
248.97675	865
248.99797	871
249.01921	884
249.04045	883
249.06169	893
249.08293	900
249.10417	910
249.1254	907
249.14664	905
249.16788	927
249.18912	934
249.21034	914
249.23158	938
249.25282	950
249.27406	950
249.29529	967
249.31653	972
249.33777	959
249.35899	978
249.38023	979
249.40146	980
249.4227	987
249.44394	994
249.46516	1002
249.4864	997
249.50763	1020
249.52887	1040
249.55009	1041
249.57133	1038
249.59256	1034
249.6138	1047
249.63503	1070
249.65627	1066
249.67749	1068
249.69873	1105
249.71996	1102
249.74118	1098
249.76242	1137
249.78365	1129
249.80489	1142
249.82611	1148
249.84734	1149
249.86858	1176
249.8898	1186
249.91103	1186
249.93225	1192
249.95349	1218
249.97472	1227
249.99594	1247
250.01717	1244
250.03841	1275
250.05963	1302
250.08086	1302
250.10208	1316
250.12331	1320
250.14453	1344
250.16577	1362
250.187	1363
250.20822	1369
250.22945	1403
250.25067	1415
250.2719	1413
250.29312	1430
250.31435	1444
250.33557	1451
250.3568	1491
250.37802	1508
250.39925	1535
250.42047	1533
250.4417	1565
250.46292	1568
250.48415	1602
250.50537	1617
250.5266	1627
250.54782	1624
250.56903	1655
250.59026	1663
250.61148	1683
250.63271	1713
250.65393	1741
250.67516	1735
250.69637	1747
250.71759	1761
250.73882	1815
250.76004	1809
250.78125	1826
250.80247	1837
250.8237	1878
250.84491	1875
250.86613	1873
250.88736	1878
250.90857	1906
250.92979	1908
250.95102	1921
250.97223	1955
250.99345	1967
251.01468	1985
251.03589	1996
251.05711	1998
251.07832	1994
251.09955	2028
251.12076	2054
251.14198	2092
251.16319	2098
251.18442	2109
251.20563	2124
251.22685	2122
251.24806	2165
251.26927	2192
251.2905	2203
251.31171	2223
251.33293	2250
251.35414	2236
251.37535	2228
251.39658	2250
251.41779	2283
251.439	2313
251.46022	2324
251.48143	2379
251.50264	2382
251.52385	2409
251.54507	2416
251.56628	2435
251.58749	2476
251.6087	2517
251.62991	2516
251.65114	2578
251.67235	2586
251.69356	2613
251.71477	2609
251.73598	2622
251.75719	2662
251.7784	2652
251.79961	2694
251.82082	2700
251.84203	2757
251.86324	2759
251.88446	2780
251.90567	2818
251.92688	2835
251.94807	2841
251.96928	2894
251.99049	2903
252.0117	2938
252.03291	2943
252.05412	2952
252.07533	2995
252.09654	3024
252.11775	3052
252.13896	3097
252.16016	3127
252.18137	3188
252.20258	3210
252.22379	3251
252.245	3213
252.26619	3267
252.2874	3266
252.30861	3329
252.32982	3359
252.35101	3406
252.37222	3416
252.39343	3491
252.41463	3488
252.43584	3513
252.45705	3550
252.47824	3568
252.49945	3600
252.52066	3644
252.54185	3699
252.56306	3741
252.58426	3744
252.60547	3777
252.62666	3760
252.64787	3823
252.66907	3895
252.69028	3949
252.71147	3990
252.73268	4005
252.75388	4032
252.77509	4028
252.79628	4094
252.81747	4170
252.83868	4201
252.85988	4262
252.88109	4300
252.90228	4332
252.92348	4390
252.94469	4410
252.96588	4443
252.98708	4484
253.00827	4514
253.02948	4530
253.05067	4572
253.07187	4566
253.09306	4615
253.11427	4636
253.13547	4664
253.15666	4641
253.17786	4666
253.19905	4663
253.22025	4701
253.24146	4728
253.26265	4810
253.28384	4831
253.30504	4832
253.32623	4895
253.34743	4965
253.36862	4936
253.38982	4999
253.41101	5017
253.43221	5002
253.4534	5060
253.47459	5030
253.49579	5072
253.51698	5088
253.53818	5123
253.55937	5083
253.58057	5115
253.60176	5139
253.62294	5165
253.64413	5166
253.66533	5169
253.68652	5183
253.70772	5202
253.72891	5226
253.75009	5226
253.77129	5284
253.79248	5332
253.81367	5361
253.83485	5384
253.85605	5418
253.87724	5368
253.89842	5422
253.91962	5410
253.94081	5461
253.96199	5506
253.98318	5582
254.00438	5582
254.02556	5631
254.04675	5615
254.06793	5657
254.08913	5698
254.11032	5762
254.1315	5818
254.15269	5881
254.17387	5888
254.19507	5858
254.21625	5810
254.23744	5903
254.25862	5921
254.2798	6020
254.30099	6089
254.32217	6086
254.34337	6133
254.36455	6143
254.38573	6246
254.40692	6185
254.4281	6267
254.44928	6248
254.47047	6232
254.49165	6303
254.51283	6326
254.53401	6320
254.55521	6381
254.57639	6383
254.59756	6353
254.61874	6435
254.63994	6506
254.66112	6586
254.6823	6635
254.70348	6616
254.72466	6648
254.74583	6705
254.76701	6793
254.78821	6868
254.80939	6957
254.83057	6938
254.85175	6949
254.87292	7068
254.8941	7113
254.91528	7063
254.93646	7121
254.95764	7136
254.97882	7195
255	7226
255.02118	7321
255.04234	7381
255.06352	7408
255.0847	7481
255.10588	7548
255.12706	7641
255.14824	7629
255.16942	7638
255.1906	7645
255.21176	7683
255.23294	7757
255.25412	7807
255.2753	7879
255.29646	7913
255.31764	7947
255.33882	7923
255.36	7966
255.38116	7983
255.40234	8031
255.42352	8104
255.44469	8245
255.46587	8248
255.48703	8294
255.50821	8305
255.52939	8369
255.55055	8444
255.57173	8450
255.5929	8477
255.61407	8534
255.63524	8587
255.65642	8618
255.67758	8627
255.69876	8586
255.71992	8636
255.7411	8696
255.76227	8744
255.78345	8815
255.80461	8911
255.82578	8929
255.84695	8957
255.86812	9009
255.88928	9071
255.91046	9097
255.93163	9196
255.95279	9210
255.97397	9256
255.99513	9291
256.0163	9228
256.03748	9253
256.05862	9330
256.0798	9350
256.10098	9426
256.12213	9476
256.14331	9524
256.16446	9553
256.18564	9555
256.20679	9577
256.22797	9624
256.24915	9666
256.27029	9753
256.29147	9762
256.31262	9814
256.3338	9783
256.35495	9803
256.37613	9854
256.39728	9922
256.41846	9943
256.43961	9988
256.46078	10053
256.48193	10122
256.50311	10175
256.52426	10133
256.54541	10171
256.56659	10117
256.58774	10119
256.60892	10028
256.63007	9957
256.65125	10036
256.67239	9967
256.69354	10053
256.71472	10092
256.73587	10212
256.75705	10197
256.7782	10231
256.79935	10308
256.82053	10377
256.84167	10319
256.86282	10428
256.884	10513
256.90515	10669
256.9263	10698
256.94748	10723
256.96863	10754
256.98978	10884
257.01093	10997
257.0321	11044
257.05325	11113
257.0744	11165
257.09558	11139
257.11673	11060
257.13788	11073
257.15903	11173
257.18021	11230
257.20135	11272
257.2225	11427
257.24365	11516
257.2648	11671
257.28598	11547
257.30713	11688
257.32828	11673
257.34943	11864
257.37057	11972
257.39172	12083
257.4129	12204
257.43405	12265
257.4552	12371
257.47635	12303
257.4975	12346
257.51865	12362
257.53979	12392
257.56094	12517
257.58212	12650
257.60327	12684
257.62442	12660
257.64557	12747
257.66672	12837
257.68787	12853
257.70901	12889
257.73016	12964
257.75131	13007
257.77246	13046
257.79361	13051
257.81476	13063
257.83591	13121
257.85706	13230
257.8782	13401
257.89935	13465
257.9205	13652
257.94165	13685
257.9628	13629
257.98395	13634
258.0051	13605
258.02625	13741
258.04739	13774
258.06854	13894
258.08966	13994
258.11081	14104
258.13196	14180
258.15311	14127
258.17426	14174
258.1954	14215
258.21655	14270
258.2377	14265
258.25885	14344
258.27997	14327
258.30112	14470
258.32227	14472
258.34341	14476
258.36456	14449
258.38568	14463
258.40683	14597
258.42798	14712
258.44913	14875
258.47028	14838
258.49139	14854
258.51254	14785
258.53369	14790
258.55484	14960
258.57596	15103
258.59711	15296
258.61826	15394
258.6394	15333
258.66052	15341
258.68167	15453
258.70282	15504
258.72394	15563
258.74509	15608
258.76624	15731
258.78735	15780
258.8085	15694
258.82965	15708
258.85077	15786
258.87192	15763
258.89307	15713
258.91418	15643
258.93533	15806
258.95648	15855
258.9776	15841
258.99875	15919
259.01987	16002
259.04102	16105
259.06213	16224
259.08328	16352
259.10443	16422
259.12555	16416
259.1467	16423
259.16782	16641
259.18896	16605
259.21008	16671
259.23123	16674
259.25235	16743
259.2735	16852
259.29462	16724
259.31577	16658
259.33688	16647
259.35803	16851
259.37915	16932
259.4003	17008
259.42142	17059
259.44257	17121
259.46368	17066
259.4848	17017
259.50595	17101
259.52707	17334
259.54822	17364
259.56934	17536
259.59045	17482
259.6116	17550
259.63272	17474
259.65384	17548
259.67499	17613
259.69611	17701
259.71725	17726
259.73837	17778
259.75949	17938
259.78064	17903
259.80176	17875
259.82288	17936
259.84399	18171
259.86514	18268
259.88626	18381
259.90738	18426
259.92853	18518
259.94965	18470
259.97076	18475
259.99188	18644
260.01303	18822
260.03415	18950
260.05527	19109
260.07639	19087
260.0975	19170
260.11865	19375
260.13977	19487
260.16089	19481
260.18201	19480
260.20313	19568
260.22424	19532
260.24539	19466
260.26651	19695
260.28763	19697
260.30875	19771
260.32986	19634
260.35098	19582
260.3721	19697
260.39322	19836
260.41437	20077
260.43549	20218
260.4566	20185
260.47772	20101
260.49884	20243
260.51996	20400
260.54108	20542
260.56219	20532
260.58331	20567
260.60443	20609
260.62555	20700
260.64667	20600
260.66779	20653
260.6889	20801
260.71002	20756
260.73114	20724
260.75226	20779
260.77338	20899
260.79449	21132
260.81561	21096
260.83673	21245
260.85785	21312
260.87897	21297
260.90009	21228
260.9212	21105
260.94229	21081
260.96341	21136
260.98453	21136
261.00565	21302
261.02676	21453
261.04788	21477
261.069	21531
261.09012	21404
261.11121	21550
261.13232	21497
261.15344	21659
261.17456	21836
261.19568	22013
261.2168	22101
261.23788	22153
261.259	22009
261.28012	22179
261.30124	22369
261.32233	22409
261.34344	22486
261.36456	22552
261.38568	22534
261.40677	22525
261.42789	22520
261.44901	22401
261.47012	22443
261.49121	22559
261.51233	22610
261.53345	22749
261.55453	23082
261.57565	23081
261.59677	23128
261.61786	23236
261.63898	23242
261.6601	23232
261.68118	23349
261.7023	23485
261.72342	23503
261.74451	23490
261.76563	23557
261.78671	23527
261.80783	23535
261.82895	23575
261.85004	23576
261.87115	23802
261.89224	23784
261.91336	23687
261.93445	23615
261.95557	23652
261.97665	23667
261.99777	23826
262.01886	23878
262.03998	23958
262.06107	23868
262.08218	23857
262.10327	23765
262.12439	23796
262.14548	23976
262.1666	24006
262.18768	23969
262.2088	24143
262.22989	24210
262.25101	24295
262.27209	24272
262.29318	24173
262.3143	24112
262.33539	23998
262.35651	23758
262.37759	23649
262.39868	23598
262.4198	23579
262.44089	23729
262.46201	23920
262.48309	23930
262.50418	23850
262.5253	23830
262.54639	23794
262.56747	23726
262.58856	23880
262.60968	24189
262.63077	24463
262.65186	24652
262.67297	24646
262.69406	24547
262.71515	24595
262.73624	24737
262.75735	24760
262.77844	24746
262.79953	24930
262.82062	24800
262.84174	24804
262.86282	24617
262.88391	24502
262.905	24417
262.92609	24454
262.9472	24718
262.96829	24949
262.98938	25037
263.01047	25039
263.03156	24948
263.05264	24932
263.07373	25026
263.09485	25319
263.11594	25432
263.13702	25627
263.15811	25707
263.1792	25726
263.20029	25697
263.22137	25697
263.24246	25754
263.26355	25682
263.28464	25832
263.30573	25842
263.32681	25716
263.3479	25796
263.36899	25774
263.39008	25762
263.41116	25827
263.43225	25974
263.45334	25915
263.47443	25909
263.49551	25941
263.5166	25891
263.53769	25868
263.55878	25953
263.57986	26134
263.60095	26379
263.62204	26491
263.64313	26646
263.66422	26706
263.6853	26683
263.70639	26701
263.72748	26635
263.74857	26555
263.76962	26565
263.79071	26727
263.8118	26754
263.83289	26870
263.85397	26896
263.87506	26981
263.89612	27156
263.91721	27066
263.93829	26933
263.95938	26871
263.98047	26915
264.00156	27021
264.02261	27110
264.0437	27121
264.06479	27103
264.08588	27033
264.10693	26949
264.12802	26987
264.14911	27266
264.1702	27562
264.19125	27706
264.21234	27633
264.23343	27633
264.25449	27607
264.27557	27668
264.29666	27839
264.31772	28123
264.33881	28225
264.35989	28441
264.38095	28544
264.40204	28511
264.42313	28754
264.44418	28769
264.46527	28788
264.48636	28896
264.50742	28837
264.5285	28909
264.54956	28825
264.57065	28882
264.59171	28928
264.61279	28949
264.63388	28704
264.65494	28700
264.67603	28685
264.69708	28778
264.71817	28796
264.73923	28939
264.76031	29061
264.78137	29069
264.80246	29352
264.82352	29575
264.8446	29752
264.86566	29558
264.88675	29722
264.90781	29892
264.92886	29910
264.94995	29891
264.97101	30005
264.9921	29929
265.01315	30045
265.03424	29957
265.0553	29679
265.07635	29941
265.09744	29959
265.1185	29928
265.13956	29998
265.16064	30080
265.1817	30098
265.20279	29874
265.22385	29678
265.2449	29772
265.26599	29981
265.28705	29969
265.30811	30015
265.32916	29969
265.35025	29954
265.37131	29866
265.39236	29899
265.41345	30045
265.43451	29980
265.45557	30074
265.47662	30377
265.49768	30485
265.51877	30301
265.53983	30124
265.56088	30147
265.58194	30361
265.60303	30512
265.62408	30503
265.64514	30512
265.6662	30486
265.68726	30524
265.70831	30538
265.72937	30511
265.75046	30662
265.77151	30866
265.79257	30933
265.81363	30856
265.83469	30948
265.85574	31040
265.8768	31135
265.89786	31119
265.91891	31200
265.93997	31235
265.96106	31006
265.98212	31094
266.00317	31224
266.02423	31322
266.04529	31300
266.06635	30944
266.0874	30921
266.10846	31005
266.12952	31153
266.15057	31240
266.17163	31486
266.19269	31387
266.21375	31255
266.2348	31202
266.25583	31484
266.27689	31437
266.29794	31295
266.319	31351
266.34006	31322
266.36111	31326
266.38217	31281
266.40323	31212
266.42429	31314
266.44534	31274
266.4664	31120
266.48743	31081
266.50848	31158
266.52954	31284
266.5506	31407
266.57166	31126
266.59271	31115
266.61374	31027
266.6348	30780
266.65585	30659
266.67691	30618
266.69794	30629
266.71899	30707
266.74005	30837
266.76111	30941
266.78217	30897
266.80319	30959
266.82425	30916
266.84531	30887
266.86633	30964
266.88739	31107
266.90845	31301
266.9295	31581
266.95053	31682
266.97159	31563
266.99265	31456
267.01367	31781
267.03473	31842
267.05576	31912
267.07681	31919
267.09787	31854
267.1189	31693
267.13995	31734
267.16101	31701
267.18204	31777
267.20309	31812
267.22412	31686
267.24518	31831
267.2662	32091
267.28726	32292
267.30832	32201
267.32935	32216
267.3504	32351
267.37143	32420
267.39249	32648
267.41351	32706
267.43457	32855
267.4556	33208
267.47665	32999
267.49768	33177
267.51874	33112
267.53976	33091
267.56079	32884
267.58185	32919
267.60287	33074
267.62393	33096
267.64496	33170
267.66602	33077
267.68704	33349
267.70807	33533
267.72913	33692
267.75015	33605
267.77118	33581
267.79224	33435
267.81326	33161
267.83432	33180
267.85535	33094
267.87637	33354
267.89743	33373
267.91846	33663
267.93948	33883
267.96051	33923
267.98157	34182
268.00259	33953
268.02362	33878
268.04468	33804
268.0657	33830
268.08673	33780
268.10776	33904
268.12878	33700
268.14984	33449
268.17087	33513
268.19189	33625
268.21292	33670
268.23398	33746
268.255	33801
268.27603	33892
268.29706	33712
268.31808	33944
268.33911	34030
268.36014	34522
268.3812	34673
268.40222	34769
268.42325	34523
268.44427	34550
268.4653	34671
268.48633	34876
268.50735	34967
268.52838	34911
268.54941	34917
268.57043	34726
268.59146	34487
268.61252	34542
268.63354	34320
268.65457	34666
268.6756	34672
268.69662	34995
268.71765	35215
268.73868	34935
268.7597	34786
268.78073	34828
268.80176	35186
268.82278	35229
268.84378	35338
268.86481	35482
268.88583	35594
268.90686	35320
268.92789	35385
268.94891	35594
268.96994	35570
268.99097	35552
269.01199	35664
269.03302	35502
269.05405	35648
269.07504	35446
269.09607	35673
269.1171	35513
269.13812	35585
269.15915	35352
269.18018	35420
269.20117	35219
269.2222	35398
269.24323	35221
269.26425	35309
269.28528	35423
269.30627	35443
269.3273	35472
269.34833	35513
269.36935	35725
269.39035	35646
269.41138	35727
269.4324	35931
269.45343	36040
269.47443	35727
269.49545	35568
269.51648	35579
269.53748	35521
269.5585	35769
269.57953	35730
269.60052	35826
269.62155	35726
269.64258	35856
269.66357	35516
269.6846	35558
269.7056	35595
269.72662	35556
269.74765	35525
269.76865	35741
269.78967	35606
269.81067	35201
269.8317	35103
269.85272	35088
269.87372	35219
269.89474	35399
269.91574	35542
269.93677	35368
269.95776	35374
269.97879	35370
269.99979	35284
270.02081	35521
270.04181	35385
270.06284	35935
270.08383	35911
270.10486	36017
270.12585	36022
270.14688	35992
270.16788	36082
270.18887	35969
270.2099	36152
270.2309	36101
270.25192	36039
270.27292	36000
270.29391	35921
270.31494	36061
270.33594	36134
270.35696	35915
270.37796	35778
270.39896	35749
270.41998	35890
270.44098	36024
270.46198	36179
270.483	36325
270.504	36035
270.52499	36357
270.54599	36441
270.56702	36682
270.58801	36316
270.60901	36541
270.63	36450
270.65103	36702
270.67203	36571
270.69302	36621
270.71402	36649
270.73505	36771
270.75604	36460
270.77704	36316
270.79803	36218
270.81903	36484
270.84006	36332
270.86105	36302
270.88205	36383
270.90305	36243
270.92404	36280
270.94504	35934
270.96603	35943
270.98706	35899
271.00806	35953
271.02905	36053
271.05005	36198
271.07104	36182
271.09204	36173
271.11304	36310
271.13403	36390
271.15503	36133
271.17603	36499
271.19702	36738
271.21802	36683
271.23901	36873
271.26001	36680
271.28101	36481
271.302	36803
271.323	37020
271.34399	37419
271.36499	37555
271.38599	37497
271.40698	37658
271.42798	37512
271.44897	37195
271.46997	37573
271.49097	37537
271.51196	37674
271.53296	37907
271.55392	37901
271.57492	38345
271.59592	38568
271.61691	38487
271.63791	38461
271.65891	38493
271.6799	38397
271.70087	38465
271.72186	38546
271.74286	38690
271.76385	38802
271.78485	38772
271.80582	38907
271.82681	38650
271.84781	38738
271.8688	38530
271.8898	38971
271.91077	39124
271.93176	38804
271.95276	38917
271.97372	38980
271.99472	39087
272.01572	39099
272.03671	39280
272.05768	39212
272.07867	39227
272.09967	39189
272.12064	39151
272.14163	39292
272.16263	39292
272.18359	39334
272.20459	39480
272.22556	39374
272.24655	39680
272.26755	39551
272.28851	39783
272.30951	39345
272.33047	39232
272.35147	39120
272.37247	39150
272.39343	39042
272.41443	38972
272.43539	39012
272.45639	39084
272.47736	39067
272.49835	39001
272.51932	39363
272.54031	39143
272.56128	39029
272.58228	39217
272.60324	39562
272.62424	39692
272.6452	40209
272.6662	39894
272.68716	40105
272.70813	39911
272.72913	39856
272.75009	39699
272.77109	39895
272.79205	39865
272.81302	40292
272.83401	39958
272.85498	39982
272.87595	39851
272.89694	39360
272.91791	39709
272.9389	39764
272.95987	39851
272.98083	40215
273.0018	40611
273.0228	40593
273.04376	40425
273.06473	40096
273.08572	40299
273.10669	40608
273.12766	40682
273.14862	40717
273.16962	40931
273.19058	40909
273.21155	40720
273.23251	40801
273.25348	40780
273.27448	40875
273.29544	40891
273.31641	40822
273.33737	41139
273.35834	40975
273.37933	41043
273.4003	40797
273.42126	40920
273.44223	41046
273.4632	40786
273.48416	40767
273.50513	40947
273.52609	40816
273.54706	41014
273.56805	40739
273.58902	40853
273.60999	41400
273.63095	41374
273.65192	41512
273.67288	41563
273.69385	41737
273.71481	41520
273.73578	41065
273.75674	41077
273.77771	41138
273.79868	40941
273.81964	40953
273.84061	40997
273.86157	41079
273.88254	40815
273.9035	40831
273.92447	40997
273.94543	41248
273.96637	40998
273.98734	41653
274.0083	41213
274.02927	41812
274.05023	41733
274.0712	42296
274.09216	42454
274.11313	42586
274.13406	42721
274.15503	42833
274.17599	42496
274.19696	42825
274.21793	42708
274.23889	42805
274.25983	42859
274.28079	42702
274.30176	42721
274.32272	42885
274.34366	42950
274.36462	43112
274.38559	43166
274.40656	43526
274.42749	43603
274.44846	43610
274.46942	43503
274.49039	43672
274.51132	43707
274.53229	44022
274.55325	44126
274.57419	44066
274.59515	44307
274.61612	44573
274.63705	44611
274.65802	44500
274.67899	44570
274.69992	44865
274.72089	45023
274.74182	44761
274.76279	44974
274.78375	44602
274.80469	44652
274.82565	44868
274.84659	44785
274.86755	44587
274.88849	44969
274.90945	44818
274.93039	45082
274.95135	45205
274.97229	45054
274.99326	45397
275.01419	45664
275.03516	45645
275.05609	45897
275.07706	45668
275.09799	46318
275.11896	46474
275.13989	46191
275.16086	46496
275.18179	46344
275.20273	46243
275.22369	46188
275.24463	46424
275.26559	46406
275.28653	46363
275.30746	46197
275.32843	46380
275.34937	46572
275.3703	46476
275.39127	46183
275.4122	46213
275.43314	46093
275.4541	46180
275.47504	46224
275.49597	46029
275.51694	45908
275.53787	46148
275.55881	46249
275.57974	45970
275.60071	46161
275.62164	46158
275.64258	45893
275.66351	46174
275.68445	45944
275.70541	46169
275.72635	46012
275.74728	46319
275.76822	46089
275.78915	46172
275.81012	46050
275.83105	45894
275.85199	45965
275.87292	45850
275.89386	46168
275.91479	45930
275.93573	46199
275.95667	46142
275.97763	46057
275.99857	45943
276.0195	46060
276.04044	45766
276.06137	45864
276.08231	45767
276.10324	45980
276.12418	46058
276.14511	46007
276.16605	45997
276.18698	46032
276.20792	45741
276.22885	45976
276.24979	45751
276.27072	45893
276.29166	46053
276.31259	45624
276.33353	46061
276.35446	45695
276.3754	46102
276.39633	46182
276.41724	46064
276.43817	46132
276.45911	46182
276.48004	45965
276.50098	45788
276.52191	45067
276.54285	43572
276.56378	40814
